# File: 20-06-07T194439.ast
# NOTEA     = None Attached.  RTLSDR Dongle Test
# NOTEB     = Spectral Integration
# OBSERVER  = Science Aficionado
# DEVICE    = rtl=0,bias=1
# DATADIR   = ../data/
# SITE      = None Attached.  RTLSDR Dongle Test
# CITY      = Seattle
# REGION    = Washington
# COUNTRY   = US
# TELTYPE   = UW CSE 490W Dish
# FRAME     = TOPO
# GAIN1     = 49.0
# GAIN2     = 11.0
# GAIN3     = 11.0
# GAIN4     = 0.0
# Count     = 2500
# CenterFreq= 1421500000.0
# Bandwidth = 2500000.0
# Duration  = 41.688768
# DeltaX    = 5859.375
# TSYS      = 200.0
# TRX       = 100.0
# TRMS      = 2.0
# TINT      = 1.0
# KPERC     = 100.0
# GAINFACT  = 1.0
# BUNIT     = Counts
# NCHAN     = 2048
# NSPEC     = 1
# NTIME     = 0
# NSAMPLES  = 0
# EPEAK     = 4.10875183718
# ERMS      = 0.995973393526
# EMJD      = 58568.808999981004 
# REFCHAN   = 1024.0
# REFSAMPL  = 256.0
# NAVE      = 50
# NMEDIAN   = 1024
# Fft_rate  = 5000
# UTC       = 2020-06-07 19:44:39.559478
# SECONDS   =       0.0000000000 
# LST       = 09:00:33.420
# AZ        = 180.0
# EL        = 90.0
# TELLON    = -57:41:09.900
# TELLAT    = +47:39:13.800
# RA        = 08:57:47.670
# DEC       = +47:48:34.900
# GALLON    = 171:50:08.20
# GALLAT    = +40:36:45.80
# ALT_SUN   = +37:33:24.2
# AZ_SUN    = +263:19:59.7
# ETAA      = 0.8
# ETAB      = 0.99
# POLANGLE  = 0.0
# TELSIZEAM = 1.0
# TELSIZEBM = 1.0
# AST_VERS  = 05.01
0000 1420250610 9.2082
0001 1420251831 8.9608
0002 1420253051 9.0007
0003 1420254272 9.0392
0004 1420255493 8.9850
0005 1420256713 8.9177
0006 1420257934 9.0002
0007 1420259155 8.9706
0008 1420260375 8.9755
0009 1420261596 9.1235
0010 1420262817 9.1324
0011 1420264038 9.1084
0012 1420265258 9.1097
0013 1420266479 9.3484
0014 1420267700 9.1424
0015 1420268920 9.1868
0016 1420270141 9.0925
0017 1420271362 9.1105
0018 1420272583 9.2132
0019 1420273803 9.2271
0020 1420275024 9.3202
0021 1420276245 9.2110
0022 1420277465 9.2670
0023 1420278686 9.3414
0024 1420279907 9.3055
0025 1420281127 9.3944
0026 1420282348 9.4528
0027 1420283569 9.3247
0028 1420284790 9.4014
0029 1420286010 9.4189
0030 1420287231 9.4840
0031 1420288452 9.5441
0032 1420289672 9.5835
0033 1420290893 9.5986
0034 1420292114 9.6468
0035 1420293334 9.8120
0036 1420294555 9.7753
0037 1420295776 9.8474
0038 1420296997 9.8958
0039 1420298217 9.8533
0040 1420299438 10.0981
0041 1420300659 10.4495
0042 1420301879 10.1065
0043 1420303100 10.0895
0044 1420304321 10.1590
0045 1420305541 10.1963
0046 1420306762 10.2925
0047 1420307983 10.2400
0048 1420309204 10.3166
0049 1420310424 10.2928
0050 1420311645 10.2826
0051 1420312866 10.6598
0052 1420314086 10.5409
0053 1420315307 10.6808
0054 1420316528 10.6166
0055 1420317749 10.7182
0056 1420318969 10.7861
0057 1420320190 10.8720
0058 1420321411 11.0030
0059 1420322631 10.9625
0060 1420323852 10.8774
0061 1420325073 11.1338
0062 1420326293 11.1528
0063 1420327514 11.2529
0064 1420328735 11.1909
0065 1420329956 11.4109
0066 1420331176 11.3988
0067 1420332397 11.3235
0068 1420333618 11.5172
0069 1420334838 11.7194
0070 1420336059 11.7644
0071 1420337280 11.7679
0072 1420338500 11.8085
0073 1420339721 11.9702
0074 1420340942 11.9803
0075 1420342163 12.1232
0076 1420343383 12.0722
0077 1420344604 12.1375
0078 1420345825 12.1776
0079 1420347045 12.2576
0080 1420348266 12.3551
0081 1420349487 12.3180
0082 1420350708 12.3436
0083 1420351928 12.4807
0084 1420353149 12.8098
0085 1420354370 12.7961
0086 1420355590 12.7439
0087 1420356811 12.7730
0088 1420358032 12.9011
0089 1420359252 13.1633
0090 1420360473 13.0341
0091 1420361694 13.0525
0092 1420362915 13.0687
0093 1420364135 13.2864
0094 1420365356 13.3129
0095 1420366577 13.5758
0096 1420367797 13.4661
0097 1420369018 13.7015
0098 1420370239 13.4792
0099 1420371459 13.6949
0100 1420372680 14.0990
0101 1420373901 13.8222
0102 1420375122 13.8866
0103 1420376342 14.0720
0104 1420377563 14.2295
0105 1420378784 14.2125
0106 1420380004 14.3661
0107 1420381225 14.3286
0108 1420382446 14.5019
0109 1420383666 14.5968
0110 1420384887 14.7881
0111 1420386108 14.7895
0112 1420387329 15.1521
0113 1420388549 15.1143
0114 1420389770 15.1190
0115 1420390991 15.3499
0116 1420392211 15.3815
0117 1420393432 15.3394
0118 1420394653 15.4581
0119 1420395874 15.5521
0120 1420397094 15.6935
0121 1420398315 15.9070
0122 1420399536 15.6776
0123 1420400756 16.0222
0124 1420401977 16.0946
0125 1420403198 16.2064
0126 1420404418 16.0588
0127 1420405639 16.3687
0128 1420406860 16.4537
0129 1420408081 16.4885
0130 1420409301 16.6559
0131 1420410522 16.8380
0132 1420411743 16.8273
0133 1420412963 16.7976
0134 1420414184 16.9233
0135 1420415405 17.1505
0136 1420416625 17.6048
0137 1420417846 17.4511
0138 1420419067 17.3225
0139 1420420288 17.5801
0140 1420421508 17.8539
0141 1420422729 17.7836
0142 1420423950 18.1172
0143 1420425170 18.2294
0144 1420426391 17.9396
0145 1420427612 18.1495
0146 1420428833 18.3694
0147 1420430053 18.5343
0148 1420431274 18.4158
0149 1420432495 18.9418
0150 1420433715 18.9977
0151 1420434936 19.0659
0152 1420436157 19.0357
0153 1420437377 19.1109
0154 1420438598 19.3158
0155 1420439819 19.2403
0156 1420441040 19.4229
0157 1420442260 19.5477
0158 1420443481 19.4025
0159 1420444702 20.2462
0160 1420445922 19.7445
0161 1420447143 19.9518
0162 1420448364 20.4392
0163 1420449584 20.2873
0164 1420450805 20.4101
0165 1420452026 20.7100
0166 1420453247 20.3138
0167 1420454467 20.5873
0168 1420455688 20.9365
0169 1420456909 21.0234
0170 1420458129 21.2750
0171 1420459350 21.0516
0172 1420460571 21.3552
0173 1420461791 21.0998
0174 1420463012 21.2265
0175 1420464233 21.7868
0176 1420465454 21.5811
0177 1420466674 21.6797
0178 1420467895 21.7387
0179 1420469116 22.0289
0180 1420470336 22.3850
0181 1420471557 21.9070
0182 1420472778 22.3886
0183 1420473999 22.4772
0184 1420475219 22.9487
0185 1420476440 22.9634
0186 1420477661 23.0381
0187 1420478881 23.0093
0188 1420480102 23.0302
0189 1420481323 23.4058
0190 1420482543 23.5127
0191 1420483764 23.4793
0192 1420484985 23.4902
0193 1420486206 23.5286
0194 1420487426 23.8477
0195 1420488647 24.0349
0196 1420489868 24.0182
0197 1420491088 24.0858
0198 1420492309 24.1616
0199 1420493530 24.3443
0200 1420494750 24.5647
0201 1420495971 25.0242
0202 1420497192 24.9739
0203 1420498413 25.3999
0204 1420499633 26.0820
0205 1420500854 24.9425
0206 1420502075 25.3770
0207 1420503295 25.4100
0208 1420504516 25.5096
0209 1420505737 25.6114
0210 1420506958 26.0008
0211 1420508178 25.8905
0212 1420509399 26.0583
0213 1420510620 25.9790
0214 1420511840 26.0294
0215 1420513061 26.0363
0216 1420514282 26.6504
0217 1420515502 26.7023
0218 1420516723 26.5201
0219 1420517944 26.5672
0220 1420519165 26.6878
0221 1420520385 26.6820
0222 1420521606 27.3858
0223 1420522827 27.1122
0224 1420524047 27.6816
0225 1420525268 27.4186
0226 1420526489 27.5217
0227 1420527709 27.7877
0228 1420528930 27.2356
0229 1420530151 27.7537
0230 1420531372 27.5948
0231 1420532592 27.9879
0232 1420533813 28.1056
0233 1420535034 28.2901
0234 1420536254 28.4024
0235 1420537475 28.3776
0236 1420538696 28.9345
0237 1420539916 28.7983
0238 1420541137 28.9705
0239 1420542358 28.4741
0240 1420543579 29.0369
0241 1420544799 29.3735
0242 1420546020 28.7887
0243 1420547241 29.5922
0244 1420548461 29.4147
0245 1420549682 29.5475
0246 1420550903 29.6796
0247 1420552124 29.8564
0248 1420553344 29.5451
0249 1420554565 30.0064
0250 1420555786 29.9667
0251 1420557006 30.0692
0252 1420558227 30.2802
0253 1420559448 30.0716
0254 1420560668 30.6731
0255 1420561889 30.6806
0256 1420563110 31.0064
0257 1420564331 30.3587
0258 1420565551 30.7429
0259 1420566772 30.8675
0260 1420567993 30.9716
0261 1420569213 31.1918
0262 1420570434 31.1228
0263 1420571655 31.1063
0264 1420572875 31.7294
0265 1420574096 31.6632
0266 1420575317 31.2918
0267 1420576538 31.7747
0268 1420577758 31.9879
0269 1420578979 32.1805
0270 1420580200 32.0556
0271 1420581420 32.6017
0272 1420582641 32.4827
0273 1420583862 32.3983
0274 1420585083 32.8056
0275 1420586303 32.2475
0276 1420587524 32.8052
0277 1420588745 32.9210
0278 1420589965 33.4554
0279 1420591186 32.9630
0280 1420592407 33.0025
0281 1420593627 33.6510
0282 1420594848 33.4875
0283 1420596069 33.7671
0284 1420597290 33.2763
0285 1420598510 33.2425
0286 1420599731 34.0085
0287 1420600952 34.1494
0288 1420602172 33.9899
0289 1420603393 33.5076
0290 1420604614 34.1332
0291 1420605834 34.0435
0292 1420607055 34.5626
0293 1420608276 34.0040
0294 1420609497 34.4482
0295 1420610717 34.5010
0296 1420611938 34.3598
0297 1420613159 34.6894
0298 1420614379 34.8757
0299 1420615600 34.9833
0300 1420616821 35.2836
0301 1420618041 35.1716
0302 1420619262 35.4146
0303 1420620483 35.2539
0304 1420621704 35.0255
0305 1420622924 35.3159
0306 1420624145 35.2764
0307 1420625366 35.2484
0308 1420626586 35.5211
0309 1420627807 35.9408
0310 1420629028 35.8524
0311 1420630249 35.6223
0312 1420631469 35.7250
0313 1420632690 35.5953
0314 1420633911 36.2172
0315 1420635131 38.3224
0316 1420636352 36.4098
0317 1420637573 36.4777
0318 1420638793 37.1001
0319 1420640014 36.5931
0320 1420641235 36.8102
0321 1420642456 36.8966
0322 1420643676 37.1707
0323 1420644897 37.0417
0324 1420646118 37.1330
0325 1420647338 36.9781
0326 1420648559 36.7859
0327 1420649780 36.8874
0328 1420651000 36.8137
0329 1420652221 36.7956
0330 1420653442 36.8728
0331 1420654663 37.8250
0332 1420655883 37.2894
0333 1420657104 37.5852
0334 1420658325 37.6903
0335 1420659545 37.6340
0336 1420660766 37.5132
0337 1420661987 37.6548
0338 1420663208 37.3415
0339 1420664428 38.1651
0340 1420665649 37.7823
0341 1420666870 37.6716
0342 1420668090 38.0107
0343 1420669311 38.2898
0344 1420670532 38.7201
0345 1420671752 38.1799
0346 1420672973 38.2786
0347 1420674194 38.7335
0348 1420675415 37.9355
0349 1420676635 38.7369
0350 1420677856 38.6556
0351 1420679077 39.4025
0352 1420680297 38.1265
0353 1420681518 39.2893
0354 1420682739 38.0947
0355 1420683959 38.8394
0356 1420685180 38.8425
0357 1420686401 38.5672
0358 1420687622 39.0251
0359 1420688842 38.9266
0360 1420690063 39.3656
0361 1420691284 38.9007
0362 1420692504 39.0469
0363 1420693725 39.6248
0364 1420694946 39.4072
0365 1420696166 39.4272
0366 1420697387 39.6741
0367 1420698608 39.5170
0368 1420699829 39.1849
0369 1420701049 39.5437
0370 1420702270 39.5148
0371 1420703491 39.0597
0372 1420704711 40.0292
0373 1420705932 39.5346
0374 1420707153 39.5288
0375 1420708374 40.1341
0376 1420709594 39.7517
0377 1420710815 39.7088
0378 1420712036 40.3035
0379 1420713256 39.9533
0380 1420714477 39.8412
0381 1420715698 39.6178
0382 1420716918 40.1399
0383 1420718139 40.3689
0384 1420719360 39.8320
0385 1420720581 40.4629
0386 1420721801 39.7915
0387 1420723022 40.0297
0388 1420724243 40.6405
0389 1420725463 40.1321
0390 1420726684 40.2071
0391 1420727905 40.5722
0392 1420729125 40.0724
0393 1420730346 40.4949
0394 1420731567 39.9020
0395 1420732788 40.1481
0396 1420734008 39.9878
0397 1420735229 40.7983
0398 1420736450 40.8780
0399 1420737670 40.4692
0400 1420738891 40.6689
0401 1420740112 40.8317
0402 1420741333 40.4682
0403 1420742553 40.8739
0404 1420743774 40.4713
0405 1420744995 40.6653
0406 1420746215 40.4403
0407 1420747436 40.8291
0408 1420748657 40.7584
0409 1420749877 41.0242
0410 1420751098 40.6310
0411 1420752319 40.0613
0412 1420753540 41.2999
0413 1420754760 41.0634
0414 1420755981 41.2211
0415 1420757202 41.3381
0416 1420758422 41.3533
0417 1420759643 40.8709
0418 1420760864 41.0286
0419 1420762084 40.9782
0420 1420763305 40.7953
0421 1420764526 41.1251
0422 1420765747 41.0671
0423 1420766967 40.6495
0424 1420768188 40.7913
0425 1420769409 41.5986
0426 1420770629 41.7305
0427 1420771850 41.3249
0428 1420773071 41.0778
0429 1420774291 41.4405
0430 1420775512 41.0946
0431 1420776733 40.8311
0432 1420777954 40.8319
0433 1420779174 41.2086
0434 1420780395 41.4268
0435 1420781616 40.9851
0436 1420782836 42.0088
0437 1420784057 41.6751
0438 1420785278 40.7276
0439 1420786499 41.3009
0440 1420787719 41.6948
0441 1420788940 41.9153
0442 1420790161 40.9602
0443 1420791381 41.0059
0444 1420792602 41.1294
0445 1420793823 41.6166
0446 1420795043 41.8670
0447 1420796264 42.1308
0448 1420797485 41.1385
0449 1420798706 41.3347
0450 1420799926 43.9336
0451 1420801147 45.0882
0452 1420802368 41.6358
0453 1420803588 41.5947
0454 1420804809 41.8566
0455 1420806030 41.4486
0456 1420807250 41.6226
0457 1420808471 41.5597
0458 1420809692 41.8910
0459 1420810913 41.8427
0460 1420812133 41.4562
0461 1420813354 41.1796
0462 1420814575 41.4515
0463 1420815795 41.7273
0464 1420817016 41.6546
0465 1420818237 41.5018
0466 1420819458 41.8299
0467 1420820678 41.3751
0468 1420821899 42.4418
0469 1420823120 41.8147
0470 1420824340 41.7361
0471 1420825561 41.4966
0472 1420826782 41.5415
0473 1420828002 41.1473
0474 1420829223 41.4728
0475 1420830444 41.2153
0476 1420831665 41.5362
0477 1420832885 41.7703
0478 1420834106 41.5256
0479 1420835327 41.1583
0480 1420836547 41.2613
0481 1420837768 41.8421
0482 1420838989 41.1145
0483 1420840209 41.2271
0484 1420841430 41.0168
0485 1420842651 41.3893
0486 1420843872 41.4887
0487 1420845092 42.1593
0488 1420846313 41.5039
0489 1420847534 41.5338
0490 1420848754 41.7112
0491 1420849975 41.5294
0492 1420851196 41.4979
0493 1420852416 41.7166
0494 1420853637 42.2508
0495 1420854858 41.5937
0496 1420856079 41.4452
0497 1420857299 41.5464
0498 1420858520 42.3668
0499 1420859741 41.9931
0500 1420860961 41.6427
0501 1420862182 41.4799
0502 1420863403 42.2677
0503 1420864624 42.1196
0504 1420865844 41.3927
0505 1420867065 41.4639
0506 1420868286 41.5238
0507 1420869506 41.9230
0508 1420870727 41.3262
0509 1420871948 41.3198
0510 1420873168 41.1593
0511 1420874389 41.2846
0512 1420875610 40.9506
0513 1420876831 41.5584
0514 1420878051 41.7151
0515 1420879272 41.3179
0516 1420880493 40.7100
0517 1420881713 40.8381
0518 1420882934 41.6646
0519 1420884155 42.0789
0520 1420885375 41.3023
0521 1420886596 41.2288
0522 1420887817 41.3825
0523 1420889038 42.1347
0524 1420890258 41.6528
0525 1420891479 41.6203
0526 1420892700 41.6690
0527 1420893920 41.5126
0528 1420895141 41.4490
0529 1420896362 41.4395
0530 1420897583 41.0714
0531 1420898803 41.4942
0532 1420900024 41.2279
0533 1420901245 40.9442
0534 1420902465 41.4715
0535 1420903686 41.4400
0536 1420904907 41.4491
0537 1420906127 41.6709
0538 1420907348 41.2166
0539 1420908569 41.5740
0540 1420909790 41.2460
0541 1420911010 40.7662
0542 1420912231 41.2800
0543 1420913452 41.1495
0544 1420914672 41.2523
0545 1420915893 40.3294
0546 1420917114 40.6140
0547 1420918334 41.6690
0548 1420919555 41.4504
0549 1420920776 41.7476
0550 1420921997 41.2803
0551 1420923217 41.4205
0552 1420924438 41.5809
0553 1420925659 40.9790
0554 1420926879 41.2762
0555 1420928100 41.2741
0556 1420929321 41.2590
0557 1420930541 41.3844
0558 1420931762 41.8325
0559 1420932983 41.3509
0560 1420934204 41.1318
0561 1420935424 41.1143
0562 1420936645 41.3951
0563 1420937866 40.7284
0564 1420939086 41.3426
0565 1420940307 41.4187
0566 1420941528 41.0745
0567 1420942749 41.5084
0568 1420943969 41.4490
0569 1420945190 41.7229
0570 1420946411 40.9708
0571 1420947631 40.9492
0572 1420948852 40.9606
0573 1420950073 41.2045
0574 1420951293 41.0043
0575 1420952514 41.4861
0576 1420953735 41.9457
0577 1420954956 41.5887
0578 1420956176 41.0699
0579 1420957397 41.4370
0580 1420958618 41.3975
0581 1420959838 41.6340
0582 1420961059 40.9041
0583 1420962280 40.9340
0584 1420963500 40.9994
0585 1420964721 41.1678
0586 1420965942 41.2514
0587 1420967163 40.4696
0588 1420968383 41.1842
0589 1420969604 41.3264
0590 1420970825 41.0692
0591 1420972045 41.1833
0592 1420973266 41.0611
0593 1420974487 41.5062
0594 1420975708 41.0418
0595 1420976928 41.5208
0596 1420978149 40.6747
0597 1420979370 41.4891
0598 1420980590 41.2428
0599 1420981811 41.2875
0600 1420983032 41.2983
0601 1420984252 41.1429
0602 1420985473 41.0107
0603 1420986694 41.3336
0604 1420987915 41.1376
0605 1420989135 40.9091
0606 1420990356 41.4362
0607 1420991577 41.3976
0608 1420992797 40.7750
0609 1420994018 41.0872
0610 1420995239 41.0368
0611 1420996459 41.1712
0612 1420997680 41.4872
0613 1420998901 41.1138
0614 1421000122 41.6167
0615 1421001342 40.9797
0616 1421002563 40.3038
0617 1421003784 40.8284
0618 1421005004 41.6000
0619 1421006225 41.3120
0620 1421007446 41.2119
0621 1421008666 41.3348
0622 1421009887 41.1505
0623 1421011108 41.0325
0624 1421012329 41.1127
0625 1421013549 41.5891
0626 1421014770 41.1148
0627 1421015991 41.4895
0628 1421017211 41.5512
0629 1421018432 40.8039
0630 1421019653 40.6073
0631 1421020874 40.6992
0632 1421022094 41.3303
0633 1421023315 40.8787
0634 1421024536 40.3241
0635 1421025756 40.7706
0636 1421026977 40.7593
0637 1421028198 40.7457
0638 1421029418 40.8168
0639 1421030639 41.1681
0640 1421031860 41.3223
0641 1421033081 41.3282
0642 1421034301 41.1340
0643 1421035522 41.1550
0644 1421036743 40.9571
0645 1421037963 40.3768
0646 1421039184 40.8942
0647 1421040405 40.8619
0648 1421041625 40.5327
0649 1421042846 41.3830
0650 1421044067 41.0577
0651 1421045288 41.0839
0652 1421046508 40.9539
0653 1421047729 41.2023
0654 1421048950 41.0832
0655 1421050170 41.0666
0656 1421051391 41.4577
0657 1421052612 40.8361
0658 1421053833 41.4978
0659 1421055053 40.8155
0660 1421056274 41.1118
0661 1421057495 41.0000
0662 1421058715 41.2385
0663 1421059936 41.2800
0664 1421061157 41.1466
0665 1421062377 40.9144
0666 1421063598 41.2566
0667 1421064819 41.0477
0668 1421066040 41.4884
0669 1421067260 41.6847
0670 1421068481 41.3450
0671 1421069702 41.0432
0672 1421070922 41.1216
0673 1421072143 41.3398
0674 1421073364 41.2007
0675 1421074584 41.1992
0676 1421075805 41.5804
0677 1421077026 41.5192
0678 1421078247 41.6234
0679 1421079467 41.2448
0680 1421080688 41.5687
0681 1421081909 40.9219
0682 1421083129 41.1244
0683 1421084350 41.2690
0684 1421085571 41.7719
0685 1421086791 41.8444
0686 1421088012 42.0393
0687 1421089233 41.5747
0688 1421090454 40.8637
0689 1421091674 41.6209
0690 1421092895 41.4105
0691 1421094116 41.5864
0692 1421095336 41.2588
0693 1421096557 41.5551
0694 1421097778 41.4895
0695 1421098999 41.6760
0696 1421100219 41.8784
0697 1421101440 41.4403
0698 1421102661 41.4080
0699 1421103881 41.7482
0700 1421105102 41.6485
0701 1421106323 41.5427
0702 1421107543 41.8213
0703 1421108764 42.0976
0704 1421109985 42.2321
0705 1421111206 42.3108
0706 1421112426 41.7328
0707 1421113647 41.7134
0708 1421114868 41.8473
0709 1421116088 41.8892
0710 1421117309 42.2741
0711 1421118530 42.2522
0712 1421119750 42.4355
0713 1421120971 42.4389
0714 1421122192 41.9125
0715 1421123413 42.1049
0716 1421124633 41.6775
0717 1421125854 42.2929
0718 1421127075 42.0228
0719 1421128295 42.2791
0720 1421129516 42.2955
0721 1421130737 42.1256
0722 1421131958 41.8719
0723 1421133178 41.8502
0724 1421134399 42.7837
0725 1421135620 42.9687
0726 1421136840 42.3595
0727 1421138061 42.2519
0728 1421139282 42.4627
0729 1421140502 42.6522
0730 1421141723 42.1349
0731 1421142944 42.6494
0732 1421144165 42.8087
0733 1421145385 42.6429
0734 1421146606 42.9611
0735 1421147827 42.3135
0736 1421149047 42.8728
0737 1421150268 42.7583
0738 1421151489 42.7951
0739 1421152709 42.6685
0740 1421153930 42.4832
0741 1421155151 42.4345
0742 1421156372 42.5665
0743 1421157592 42.2229
0744 1421158813 42.8576
0745 1421160034 43.1805
0746 1421161254 42.5980
0747 1421162475 42.7504
0748 1421163696 42.9443
0749 1421164916 42.2659
0750 1421166137 42.4207
0751 1421167358 42.8631
0752 1421168579 43.2255
0753 1421169799 42.8359
0754 1421171020 42.9468
0755 1421172241 43.7506
0756 1421173461 42.5369
0757 1421174682 43.4067
0758 1421175903 43.2286
0759 1421177124 43.0570
0760 1421178344 43.3082
0761 1421179565 43.2613
0762 1421180786 43.2300
0763 1421182006 43.1044
0764 1421183227 43.2916
0765 1421184448 43.5157
0766 1421185668 43.3951
0767 1421186889 42.8920
0768 1421188110 43.1123
0769 1421189331 43.9167
0770 1421190551 43.9582
0771 1421191772 43.2663
0772 1421192993 43.1220
0773 1421194213 43.9094
0774 1421195434 43.7528
0775 1421196655 43.6388
