# File: 20-06-08T225505.ast
# NOTEA     = None Attached.  RTLSDR Dongle Test
# NOTEB     = Spectral Integration
# OBSERVER  = Science Aficionado
# DEVICE    = rtlsdr=0
# DATADIR   = ../data/
# SITE      = None Attached.  RTLSDR Dongle Test
# CITY      = Green Bank
# REGION    = West Virginia
# COUNTRY   = US
# TELTYPE   = Bubble Wrap  Horn
# FRAME     = TOPO
# GAIN1     = 49.0
# GAIN2     = 11.0
# GAIN3     = 11.0
# GAIN4     = 0.0
# Count     = 10000
# CenterFreq= 1400000000.0
# Bandwidth = 2500000.0
# Duration  = 83.895555
# DeltaX    = 5859.375
# TSYS      = 200.0
# TRX       = 100.0
# TRMS      = 2.0
# TINT      = 1.0
# KPERC     = 100.0
# GAINFACT  = 1.0
# BUNIT     = Counts
# NCHAN     = 2048
# NSPEC     = 1
# NTIME     = 0
# NSAMPLES  = 0
# EPEAK     = 4.10875183718
# ERMS      = 0.995973393526
# EMJD      = 58568.808999981004 
# REFCHAN   = 1024.0
# REFSAMPL  = 256.0
# NAVE      = 100
# NMEDIAN   = 1024
# Fft_rate  = 5000
# UTC       = 2020-06-08 22:55:05.920767
# SECONDS   =       0.0000000000 
# LST       = 10:46:50.760
# AZ        = 180.0
# EL        = 90.0
# TELLON    = -79:50:22.920
# TELLAT    = +38:25:59.160
# RA        = 10:44:32.630
# DEC       = +38:38:38.000
# GALLON    = 181:18:46.60
# GALLAT    = +61:09:55.70
# ALT_SUN   = +18:28:42.3
# AZ_SUN    = +285:04:39.9
# ETAA      = 0.8
# ETAB      = 0.99
# POLANGLE  = 0.0
# TELSIZEAM = 1.0
# TELSIZEBM = 1.0
# AST_VERS  = 05.01
0000 1398750610 11.6503
0001 1398751831 11.6449
0002 1398753051 11.6768
0003 1398754272 11.7552
0004 1398755493 11.7093
0005 1398756713 11.8738
0006 1398757934 11.8434
0007 1398759155 11.8736
0008 1398760375 11.7162
0009 1398761596 11.9524
0010 1398762817 12.1134
0011 1398764038 11.6920
0012 1398765258 11.7891
0013 1398766479 11.7628
0014 1398767700 11.8382
0015 1398768920 11.8909
0016 1398770141 11.7421
0017 1398771362 11.8655
0018 1398772583 11.9394
0019 1398773803 12.1814
0020 1398775024 11.9244
0021 1398776245 11.9659
0022 1398777465 11.9348
0023 1398778686 12.0584
0024 1398779907 12.2008
0025 1398781127 12.3270
0026 1398782348 12.0742
0027 1398783569 11.9868
0028 1398784790 12.3890
0029 1398786010 12.6919
0030 1398787231 12.3965
0031 1398788452 12.3479
0032 1398789672 12.2925
0033 1398790893 12.3124
0034 1398792114 12.3377
0035 1398793334 12.4450
0036 1398794555 12.4878
0037 1398795776 12.5991
0038 1398796997 17.6521
0039 1398798217 19.5217
0040 1398799438 13.0050
0041 1398800659 13.3603
0042 1398801879 12.9366
0043 1398803100 12.8277
0044 1398804321 12.8348
0045 1398805541 12.8125
0046 1398806762 12.9695
0047 1398807983 12.9397
0048 1398809204 13.1045
0049 1398810424 13.1713
0050 1398811645 13.2778
0051 1398812866 13.4031
0052 1398814086 13.4028
0053 1398815307 13.3279
0054 1398816528 13.3544
0055 1398817749 13.3536
0056 1398818969 13.5467
0057 1398820190 13.6608
0058 1398821411 13.6563
0059 1398822631 13.7714
0060 1398823852 13.6213
0061 1398825073 13.8041
0062 1398826293 13.9348
0063 1398827514 14.1163
0064 1398828735 14.1430
0065 1398829956 14.1783
0066 1398831176 14.2716
0067 1398832397 14.2201
0068 1398833618 14.3997
0069 1398834838 14.8578
0070 1398836059 14.5931
0071 1398837280 14.5674
0072 1398838500 14.7235
0073 1398839721 14.8190
0074 1398840942 14.9104
0075 1398842163 14.9124
0076 1398843383 15.0985
0077 1398844604 15.1573
0078 1398845825 15.2558
0079 1398847045 15.3885
0080 1398848266 15.6475
0081 1398849487 15.9288
0082 1398850708 15.6144
0083 1398851928 15.7704
0084 1398853149 15.6074
0085 1398854370 15.7195
0086 1398855590 16.0485
0087 1398856811 16.2004
0088 1398858032 16.4226
0089 1398859252 16.2397
0090 1398860473 16.2967
0091 1398861694 16.4671
0092 1398862915 16.6564
0093 1398864135 16.7428
0094 1398865356 16.8384
0095 1398866577 16.8720
0096 1398867797 17.0464
0097 1398869018 17.0289
0098 1398870239 17.4297
0099 1398871459 17.5485
0100 1398872680 17.5072
0101 1398873901 17.5804
0102 1398875122 17.7030
0103 1398876342 17.9170
0104 1398877563 17.9587
0105 1398878784 18.1773
0106 1398880004 18.1682
0107 1398881225 18.2733
0108 1398882446 18.3787
0109 1398883666 18.4848
0110 1398884887 18.7306
0111 1398886108 19.1723
0112 1398887329 19.6842
0113 1398888549 18.9779
0114 1398889770 19.1580
0115 1398890991 19.1520
0116 1398892211 19.2756
0117 1398893432 19.6441
0118 1398894653 20.3735
0119 1398895874 20.8727
0120 1398897094 20.1372
0121 1398898315 20.1603
0122 1398899536 20.3150
0123 1398900756 20.2421
0124 1398901977 20.5511
0125 1398903198 20.7342
0126 1398904418 20.8623
0127 1398905639 20.9970
0128 1398906860 20.9371
0129 1398908081 21.1620
0130 1398909301 21.3305
0131 1398910522 21.7346
0132 1398911743 21.4992
0133 1398912963 22.3395
0134 1398914184 22.0611
0135 1398915405 21.9202
0136 1398916625 21.9683
0137 1398917846 22.2130
0138 1398919067 22.5275
0139 1398920288 22.4586
0140 1398921508 22.6701
0141 1398922729 22.6188
0142 1398923950 22.6843
0143 1398925170 23.2494
0144 1398926391 23.8720
0145 1398927612 23.3580
0146 1398928833 23.5615
0147 1398930053 23.6672
0148 1398931274 23.8509
0149 1398932495 23.8360
0150 1398933715 24.0306
0151 1398934936 24.2564
0152 1398936157 24.5274
0153 1398937377 24.6300
0154 1398938598 24.6314
0155 1398939819 24.8905
0156 1398941040 25.4624
0157 1398942260 25.2006
0158 1398943481 25.1559
0159 1398944702 25.2861
0160 1398945922 25.5748
0161 1398947143 25.8378
0162 1398948364 25.8810
0163 1398949584 26.1157
0164 1398950805 26.2335
0165 1398952026 26.2848
0166 1398953247 26.6085
0167 1398954467 26.4150
0168 1398955688 27.3462
0169 1398956909 27.1352
0170 1398958129 27.1810
0171 1398959350 27.3015
0172 1398960571 27.3553
0173 1398961791 27.5113
0174 1398963012 27.9291
0175 1398964233 28.0807
0176 1398965454 27.9877
0177 1398966674 28.0953
0178 1398967895 28.3504
0179 1398969116 28.3905
0180 1398970336 29.0151
0181 1398971557 29.2919
0182 1398972778 29.1262
0183 1398973999 28.9494
0184 1398975219 28.9284
0185 1398976440 29.4990
0186 1398977661 29.6978
0187 1398978881 30.0495
0188 1398980102 30.0443
0189 1398981323 29.7907
0190 1398982543 30.1316
0191 1398983764 30.0491
0192 1398984985 30.3754
0193 1398986206 30.7915
0194 1398987426 30.8446
0195 1398988647 31.1067
0196 1398989868 31.0729
0197 1398991088 31.2520
0198 1398992309 31.1940
0199 1398993530 31.7954
0200 1398994750 31.6576
0201 1398995971 31.7497
0202 1398997192 32.2492
0203 1398998413 32.2809
0204 1398999633 32.2319
0205 1399000854 32.5099
0206 1399002075 33.1681
0207 1399003295 32.8719
0208 1399004516 33.0533
0209 1399005737 33.8910
0210 1399006958 34.3632
0211 1399008178 34.7706
0212 1399009399 34.6155
0213 1399010620 34.0489
0214 1399011840 34.1908
0215 1399013061 33.8891
0216 1399014282 34.0681
0217 1399015502 34.7870
0218 1399016723 36.6979
0219 1399017944 35.2058
0220 1399019165 34.2653
0221 1399020385 35.1716
0222 1399021606 34.9289
0223 1399022827 35.2070
0224 1399024047 35.5126
0225 1399025268 35.5564
0226 1399026489 35.8769
0227 1399027709 35.8974
0228 1399028930 35.9885
0229 1399030151 36.1241
0230 1399031372 36.3496
0231 1399032592 36.4912
0232 1399033813 36.5665
0233 1399035034 37.0836
0234 1399036254 36.8977
0235 1399037475 37.2991
0236 1399038696 37.4019
0237 1399039916 38.1135
0238 1399041137 37.7113
0239 1399042358 37.5785
0240 1399043579 38.1045
0241 1399044799 37.9189
0242 1399046020 37.8847
0243 1399047241 38.1301
0244 1399048461 38.2029
0245 1399049682 38.7025
0246 1399050903 38.6066
0247 1399052124 38.7946
0248 1399053344 39.1988
0249 1399054565 38.9840
0250 1399055786 39.9216
0251 1399057006 39.3555
0252 1399058227 39.2031
0253 1399059448 39.6177
0254 1399060668 40.1821
0255 1399061889 40.3461
0256 1399063110 40.0104
0257 1399064331 40.2138
0258 1399065551 40.1490
0259 1399066772 40.3412
0260 1399067993 40.7156
0261 1399069213 41.7217
0262 1399070434 41.0175
0263 1399071655 40.9486
0264 1399072875 41.3028
0265 1399074096 41.5611
0266 1399075317 41.4916
0267 1399076538 41.9569
0268 1399077758 43.2714
0269 1399078979 41.8603
0270 1399080200 41.8163
0271 1399081420 42.4291
0272 1399082641 42.8925
0273 1399083862 42.6096
0274 1399085083 42.9002
0275 1399086303 42.1897
0276 1399087524 42.8919
0277 1399088745 43.0155
0278 1399089965 43.0583
0279 1399091186 43.1568
0280 1399092407 43.3289
0281 1399093627 43.8270
0282 1399094848 43.6972
0283 1399096069 43.5662
0284 1399097290 43.6059
0285 1399098510 44.1566
0286 1399099731 44.5243
0287 1399100952 44.3647
0288 1399102172 44.2982
0289 1399103393 44.8029
0290 1399104614 44.8910
0291 1399105834 44.6673
0292 1399107055 44.8190
0293 1399108276 45.0122
0294 1399109497 44.8876
0295 1399110717 45.7091
0296 1399111938 45.4765
0297 1399113159 45.5737
0298 1399114379 44.8177
0299 1399115600 45.5675
0300 1399116821 45.6497
0301 1399118041 45.7736
0302 1399119262 46.2067
0303 1399120483 46.1952
0304 1399121704 46.3542
0305 1399122924 46.1773
0306 1399124145 46.1611
0307 1399125366 46.2254
0308 1399126586 46.5952
0309 1399127807 46.9520
0310 1399129028 47.7345
0311 1399130249 47.9571
0312 1399131469 47.1989
0313 1399132690 47.1231
0314 1399133911 47.5601
0315 1399135131 47.6382
0316 1399136352 47.7369
0317 1399137573 48.5588
0318 1399138793 49.0329
0319 1399140014 48.2585
0320 1399141235 47.8694
0321 1399142456 47.9997
0322 1399143676 47.9057
0323 1399144897 48.0215
0324 1399146118 48.5378
0325 1399147338 48.7233
0326 1399148559 48.5129
0327 1399149780 48.2285
0328 1399151000 48.9002
0329 1399152221 49.2842
0330 1399153442 49.1264
0331 1399154663 48.8087
0332 1399155883 49.1326
0333 1399157104 49.5938
0334 1399158325 49.3111
0335 1399159545 49.9728
0336 1399160766 49.3366
0337 1399161987 49.9438
0338 1399163208 49.8665
0339 1399164428 49.9922
0340 1399165649 49.5280
0341 1399166870 50.0819
0342 1399168090 50.1923
0343 1399169311 50.3744
0344 1399170532 50.1027
0345 1399171752 50.3875
0346 1399172973 50.6346
0347 1399174194 50.5214
0348 1399175415 50.4061
0349 1399176635 50.5504
0350 1399177856 50.9167
0351 1399179077 50.5973
0352 1399180297 50.6637
0353 1399181518 51.0677
0354 1399182739 51.2317
0355 1399183959 50.8987
0356 1399185180 50.9021
0357 1399186401 50.9400
0358 1399187622 51.2483
0359 1399188842 51.4347
0360 1399190063 53.8565
0361 1399191284 52.4865
0362 1399192504 51.6850
0363 1399193725 51.1135
0364 1399194946 51.5085
0365 1399196166 51.4240
0366 1399197387 52.2605
0367 1399198608 54.0423
0368 1399199829 52.2730
0369 1399201049 52.0411
0370 1399202270 52.1580
0371 1399203491 52.1253
0372 1399204711 52.3035
0373 1399205932 52.9212
0374 1399207153 52.7859
0375 1399208374 52.3255
0376 1399209594 52.5725
0377 1399210815 52.6094
0378 1399212036 52.1188
0379 1399213256 52.4970
0380 1399214477 52.9697
0381 1399215698 52.6339
0382 1399216918 52.6643
0383 1399218139 52.5045
0384 1399219360 53.0850
0385 1399220581 53.1252
0386 1399221801 53.7668
0387 1399223022 53.0140
0388 1399224243 53.0972
0389 1399225463 52.7394
0390 1399226684 53.2331
0391 1399227905 52.7571
0392 1399229125 53.5229
0393 1399230346 52.9480
0394 1399231567 53.2237
0395 1399232788 53.6233
0396 1399234008 53.5589
0397 1399235229 53.6955
0398 1399236450 53.2143
0399 1399237670 53.9043
0400 1399238891 53.5835
0401 1399240112 53.0031
0402 1399241333 53.4477
0403 1399242553 53.6507
0404 1399243774 55.0288
0405 1399244995 55.6987
0406 1399246215 53.7623
0407 1399247436 53.3121
0408 1399248657 54.0577
0409 1399249877 53.4651
0410 1399251098 53.7956
0411 1399252319 53.9204
0412 1399253540 53.8408
0413 1399254760 53.7645
0414 1399255981 54.0127
0415 1399257202 53.8545
0416 1399258422 54.9607
0417 1399259643 55.3292
0418 1399260864 54.0615
0419 1399262084 54.4004
0420 1399263305 53.9869
0421 1399264526 54.4547
0422 1399265747 54.2360
0423 1399266967 53.8983
0424 1399268188 54.5713
0425 1399269409 54.2867
0426 1399270629 54.5033
0427 1399271850 54.4335
0428 1399273071 54.5371
0429 1399274291 54.5770
0430 1399275512 54.3639
0431 1399276733 54.2494
0432 1399277954 54.9614
0433 1399279174 53.9012
0434 1399280395 53.5574
0435 1399281616 54.4743
0436 1399282836 55.2382
0437 1399284057 54.7827
0438 1399285278 54.0917
0439 1399286499 54.6266
0440 1399287719 54.9464
0441 1399288940 54.4683
0442 1399290161 54.2605
0443 1399291381 54.5602
0444 1399292602 55.1383
0445 1399293823 54.8318
0446 1399295043 55.0774
0447 1399296264 54.7012
0448 1399297485 55.9930
0449 1399298706 55.7374
0450 1399299926 54.8792
0451 1399301147 54.8784
0452 1399302368 55.0249
0453 1399303588 55.4044
0454 1399304809 55.5021
0455 1399306030 54.9242
0456 1399307250 54.9922
0457 1399308471 54.6875
0458 1399309692 54.5559
0459 1399310913 54.7546
0460 1399312133 56.6635
0461 1399313354 55.5302
0462 1399314575 55.4923
0463 1399315795 54.9560
0464 1399317016 55.1410
0465 1399318237 55.0813
0466 1399319458 56.0883
0467 1399320678 57.4283
0468 1399321899 55.5487
0469 1399323120 55.3044
0470 1399324340 54.2416
0471 1399325561 54.6907
0472 1399326782 54.9935
0473 1399328002 55.4888
0474 1399329223 55.6435
0475 1399330444 55.2488
0476 1399331665 54.9866
0477 1399332885 54.7777
0478 1399334106 55.1605
0479 1399335327 55.5954
0480 1399336547 55.1894
0481 1399337768 55.2948
0482 1399338989 55.2111
0483 1399340209 55.3604
0484 1399341430 55.7255
0485 1399342651 55.6489
0486 1399343872 55.3434
0487 1399345092 54.7173
0488 1399346313 55.0282
0489 1399347534 54.3369
0490 1399348754 55.2829
0491 1399349975 55.2813
0492 1399351196 55.4431
0493 1399352416 55.0024
0494 1399353637 55.0476
0495 1399354858 54.8726
0496 1399356079 54.4525
0497 1399357299 55.0772
0498 1399358520 55.2419
0499 1399359741 55.1382
0500 1399360961 55.5322
0501 1399362182 55.8951
0502 1399363403 54.8733
0503 1399364624 55.2944
0504 1399365844 55.0084
0505 1399367065 55.0140
0506 1399368286 54.9556
0507 1399369506 55.0743
0508 1399370727 55.2015
0509 1399371948 56.1203
0510 1399373168 56.0319
0511 1399374389 55.2690
0512 1399375610 54.7487
0513 1399376831 55.3159
0514 1399378051 54.8234
0515 1399379272 55.5253
0516 1399380493 55.6738
0517 1399381713 54.6655
0518 1399382934 54.5686
0519 1399384155 54.5469
0520 1399385375 54.6427
0521 1399386596 54.4345
0522 1399387817 54.8159
0523 1399389038 55.3180
0524 1399390258 55.9399
0525 1399391479 56.1499
0526 1399392700 56.3195
0527 1399393920 56.2822
0528 1399395141 57.0401
0529 1399396362 56.6231
0530 1399397583 55.7914
0531 1399398803 55.2354
0532 1399400024 54.3552
0533 1399401245 54.4885
0534 1399402465 55.1580
0535 1399403686 54.6537
0536 1399404907 54.8215
0537 1399406127 54.6153
0538 1399407348 54.4425
0539 1399408569 54.7569
0540 1399409790 54.8783
0541 1399411010 54.9660
0542 1399412231 54.9889
0543 1399413452 55.2146
0544 1399414672 54.1987
0545 1399415893 54.6187
0546 1399417114 55.2153
0547 1399418334 54.6400
0548 1399419555 54.4926
0549 1399420776 54.5592
0550 1399421997 54.5008
0551 1399423217 54.7487
0552 1399424438 54.5924
0553 1399425659 54.8997
0554 1399426879 54.4646
0555 1399428100 54.1400
0556 1399429321 54.3259
0557 1399430541 54.2879
0558 1399431762 54.4919
0559 1399432983 55.2943
0560 1399434204 55.0649
0561 1399435424 54.3473
0562 1399436645 54.4541
0563 1399437866 53.9966
0564 1399439086 54.3238
0565 1399440307 54.6532
0566 1399441528 56.2831
0567 1399442749 54.4760
0568 1399443969 54.7831
0569 1399445190 54.7104
0570 1399446411 54.8632
0571 1399447631 55.1702
0572 1399448852 55.1533
0573 1399450073 55.7361
0574 1399451293 54.7392
0575 1399452514 54.6223
0576 1399453735 54.7129
0577 1399454956 54.7272
0578 1399456176 54.6378
0579 1399457397 54.4963
0580 1399458618 54.3115
0581 1399459838 54.7979
0582 1399461059 54.3486
0583 1399462280 54.0265
0584 1399463500 54.6250
0585 1399464721 54.5356
0586 1399465942 54.8334
0587 1399467163 55.9570
0588 1399468383 54.5984
0589 1399469604 54.1220
0590 1399470825 54.6917
0591 1399472045 54.7422
0592 1399473266 54.5408
0593 1399474487 54.1484
0594 1399475708 54.1911
0595 1399476928 54.0079
0596 1399478149 54.4560
0597 1399479370 54.7044
0598 1399480590 54.2388
0599 1399481811 54.3036
0600 1399483032 54.6591
0601 1399484252 54.7734
0602 1399485473 54.3837
0603 1399486694 54.6390
0604 1399487915 54.1979
0605 1399489135 53.8640
0606 1399490356 54.4857
0607 1399491577 54.5881
0608 1399492797 54.6405
0609 1399494018 55.0083
0610 1399495239 55.0727
0611 1399496459 53.6074
0612 1399497680 54.1730
0613 1399498901 55.2260
0614 1399500122 54.8074
0615 1399501342 54.8935
0616 1399502563 57.0956
0617 1399503784 56.2468
0618 1399505004 55.7936
0619 1399506225 55.0421
0620 1399507446 54.6666
0621 1399508666 54.5633
0622 1399509887 54.7155
0623 1399511108 54.9187
0624 1399512329 54.5959
0625 1399513549 53.9787
0626 1399514770 54.1133
0627 1399515991 54.3477
0628 1399517211 54.3325
0629 1399518432 53.9485
0630 1399519653 54.0941
0631 1399520874 54.2104
0632 1399522094 54.0676
0633 1399523315 54.6371
0634 1399524536 55.5468
0635 1399525756 55.1735
0636 1399526977 54.4340
0637 1399528198 54.0422
0638 1399529418 54.0987
0639 1399530639 53.6717
0640 1399531860 54.6219
0641 1399533081 55.1230
0642 1399534301 54.3884
0643 1399535522 54.5243
0644 1399536743 54.3897
0645 1399537963 53.8993
0646 1399539184 55.2494
0647 1399540405 55.2236
0648 1399541625 54.7080
0649 1399542846 54.1903
0650 1399544067 54.7152
0651 1399545288 54.5008
0652 1399546508 54.4826
0653 1399547729 55.3765
0654 1399548950 53.9304
0655 1399550170 53.9271
0656 1399551391 54.7033
0657 1399552612 55.0071
0658 1399553833 54.8767
0659 1399555053 55.5292
0660 1399556274 55.2834
0661 1399557495 55.0517
0662 1399558715 54.6033
0663 1399559936 54.9801
0664 1399561157 54.7892
0665 1399562377 57.9404
0666 1399563598 58.4024
0667 1399564819 54.5652
0668 1399566040 54.9206
0669 1399567260 55.0126
0670 1399568481 54.6816
0671 1399569702 55.0879
0672 1399570922 55.2112
0673 1399572143 54.9600
0674 1399573364 54.6723
0675 1399574584 54.7773
0676 1399575805 55.5663
0677 1399577026 54.9478
0678 1399578247 55.2667
0679 1399579467 54.4049
0680 1399580688 54.7252
0681 1399581909 54.5635
0682 1399583129 54.8776
0683 1399584350 55.0121
0684 1399585571 55.2190
0685 1399586791 54.9331
0686 1399588012 54.5533
0687 1399589233 55.1736
0688 1399590454 54.9465
0689 1399591674 54.6933
0690 1399592895 56.0579
0691 1399594116 55.4370
0692 1399595336 54.5137
0693 1399596557 54.9693
0694 1399597778 55.2789
0695 1399598999 54.8544
0696 1399600219 56.0157
0697 1399601440 55.5915
0698 1399602661 55.1586
0699 1399603881 55.4896
0700 1399605102 55.5635
0701 1399606323 55.3118
0702 1399607543 55.2211
0703 1399608764 55.2773
0704 1399609985 54.9992
0705 1399611206 55.6128
0706 1399612426 55.5749
0707 1399613647 55.0390
0708 1399614868 56.1347
0709 1399616088 56.6396
0710 1399617309 55.7989
0711 1399618530 55.5073
0712 1399619750 55.8954
0713 1399620971 55.1439
0714 1399622192 55.5790
0715 1399623413 57.7833
0716 1399624633 57.0015
0717 1399625854 55.7955
0718 1399627075 55.7764
0719 1399628295 56.1007
0720 1399629516 56.0109
0721 1399630737 56.5766
0722 1399631958 56.3720
0723 1399633178 56.0518
0724 1399634399 55.9626
0725 1399635620 55.9067
0726 1399636840 56.3027
0727 1399638061 57.0733
0728 1399639282 56.8463
0729 1399640502 56.5565
0730 1399641723 56.3225
0731 1399642944 55.7555
0732 1399644165 56.3215
0733 1399645385 56.3573
0734 1399646606 56.9996
0735 1399647827 56.2700
0736 1399649047 56.3281
0737 1399650268 56.2260
0738 1399651489 56.4500
0739 1399652709 56.3263
0740 1399653930 56.9868
0741 1399655151 56.8609
0742 1399656372 57.0928
0743 1399657592 56.9512
0744 1399658813 56.7547
0745 1399660034 56.2564
0746 1399661254 56.9206
0747 1399662475 56.5754
0748 1399663696 56.6847
0749 1399664916 56.2530
0750 1399666137 56.5065
0751 1399667358 56.3846
0752 1399668579 57.9499
0753 1399669799 58.2400
0754 1399671020 57.2570
0755 1399672241 57.0262
0756 1399673461 57.1757
0757 1399674682 57.6418
0758 1399675903 58.5939
0759 1399677124 58.2476
0760 1399678344 57.9689
0761 1399679565 57.0856
0762 1399680786 58.5557
0763 1399682006 57.8784
0764 1399683227 57.7564
0765 1399684448 60.4033
0766 1399685668 57.9687
0767 1399686889 57.8042
0768 1399688110 57.5797
0769 1399689331 58.3544
0770 1399690551 57.8578
0771 1399691772 59.2402
0772 1399692993 58.2873
0773 1399694213 58.2036
