# File: 20-06-08T225342.ast
# NOTEA     = None Attached.  RTLSDR Dongle Test
# NOTEB     = Spectral Integration
# OBSERVER  = Science Aficionado
# DEVICE    = rtlsdr=0
# DATADIR   = ../data/
# SITE      = None Attached.  RTLSDR Dongle Test
# CITY      = Green Bank
# REGION    = West Virginia
# COUNTRY   = US
# TELTYPE   = Bubble Wrap  Horn
# FRAME     = TOPO
# GAIN1     = 49.0
# GAIN2     = 11.0
# GAIN3     = 11.0
# GAIN4     = 0.0
# Count     = 10000
# CenterFreq= 1400000000.0
# Bandwidth = 2500000.0
# Duration  = 83.900701
# DeltaX    = 5859.375
# TSYS      = 200.0
# TRX       = 100.0
# TRMS      = 2.0
# TINT      = 1.0
# KPERC     = 100.0
# GAINFACT  = 1.0
# BUNIT     = Counts
# NCHAN     = 2048
# NSPEC     = 1
# NTIME     = 0
# NSAMPLES  = 0
# EPEAK     = 4.10875183718
# ERMS      = 0.995973393526
# EMJD      = 58568.808999981004 
# REFCHAN   = 1024.0
# REFSAMPL  = 256.0
# NAVE      = 100
# NMEDIAN   = 1024
# Fft_rate  = 5000
# UTC       = 2020-06-08 22:53:42.022639
# SECONDS   =       0.0000000000 
# LST       = 10:45:26.640
# AZ        = 180.0
# EL        = 90.0
# TELLON    = -79:50:22.920
# TELLAT    = +38:25:59.160
# RA        = 10:43:08.260
# DEC       = +38:38:36.400
# GALLON    = 181:26:57.40
# GALLAT    = +60:53:56.30
# ALT_SUN   = +18:44:31.7
# AZ_SUN    = +284:53:03.1
# ETAA      = 0.8
# ETAB      = 0.99
# POLANGLE  = 0.0
# TELSIZEAM = 1.0
# TELSIZEBM = 1.0
# AST_VERS  = 05.01
0000 1398750610 11.7616
0001 1398751831 11.8533
0002 1398753051 11.7802
0003 1398754272 11.8650
0004 1398755493 11.8855
0005 1398756713 12.1273
0006 1398757934 12.0748
0007 1398759155 11.9542
0008 1398760375 11.9283
0009 1398761596 12.1496
0010 1398762817 12.3041
0011 1398764038 11.9822
0012 1398765258 11.9187
0013 1398766479 11.8141
0014 1398767700 11.7478
0015 1398768920 11.9806
0016 1398770141 11.9145
0017 1398771362 11.9813
0018 1398772583 12.0409
0019 1398773803 12.3613
0020 1398775024 12.2530
0021 1398776245 12.1599
0022 1398777465 12.0846
0023 1398778686 12.1046
0024 1398779907 12.2261
0025 1398781127 12.3745
0026 1398782348 12.1880
0027 1398783569 12.2829
0028 1398784790 12.4629
0029 1398786010 12.8819
0030 1398787231 12.3708
0031 1398788452 12.5281
0032 1398789672 12.2885
0033 1398790893 12.3479
0034 1398792114 12.5294
0035 1398793334 12.6371
0036 1398794555 12.7042
0037 1398795776 12.7752
0038 1398796997 17.5272
0039 1398798217 19.3384
0040 1398799438 13.1877
0041 1398800659 13.6419
0042 1398801879 13.0518
0043 1398803100 13.0032
0044 1398804321 13.0120
0045 1398805541 13.0230
0046 1398806762 13.1022
0047 1398807983 13.1194
0048 1398809204 13.0890
0049 1398810424 13.3099
0050 1398811645 13.4264
0051 1398812866 13.2799
0052 1398814086 13.5266
0053 1398815307 13.6054
0054 1398816528 13.5321
0055 1398817749 13.7320
0056 1398818969 13.9086
0057 1398820190 13.8766
0058 1398821411 13.8154
0059 1398822631 13.8943
0060 1398823852 14.0816
0061 1398825073 13.9741
0062 1398826293 14.2231
0063 1398827514 14.1826
0064 1398828735 14.2269
0065 1398829956 14.4507
0066 1398831176 14.4390
0067 1398832397 14.4578
0068 1398833618 14.9259
0069 1398834838 15.1731
0070 1398836059 14.8205
0071 1398837280 14.6807
0072 1398838500 14.7928
0073 1398839721 14.9332
0074 1398840942 15.0734
0075 1398842163 15.2428
0076 1398843383 15.2727
0077 1398844604 15.1977
0078 1398845825 15.4160
0079 1398847045 15.4939
0080 1398848266 15.6842
0081 1398849487 15.9349
0082 1398850708 15.8652
0083 1398851928 15.9050
0084 1398853149 15.9247
0085 1398854370 16.0148
0086 1398855590 16.1649
0087 1398856811 16.3798
0088 1398858032 16.5300
0089 1398859252 16.3916
0090 1398860473 16.6161
0091 1398861694 16.6695
0092 1398862915 16.6970
0093 1398864135 16.8213
0094 1398865356 17.0682
0095 1398866577 17.2133
0096 1398867797 17.1802
0097 1398869018 17.3441
0098 1398870239 17.4249
0099 1398871459 17.6572
0100 1398872680 17.7941
0101 1398873901 17.5941
0102 1398875122 17.8797
0103 1398876342 18.2104
0104 1398877563 18.1481
0105 1398878784 18.3602
0106 1398880004 18.5039
0107 1398881225 18.5301
0108 1398882446 18.6475
0109 1398883666 18.8425
0110 1398884887 18.7378
0111 1398886108 19.2324
0112 1398887329 19.8955
0113 1398888549 19.4064
0114 1398889770 19.3560
0115 1398890991 19.4726
0116 1398892211 19.6951
0117 1398893432 19.9535
0118 1398894653 20.5889
0119 1398895874 20.8791
0120 1398897094 20.2853
0121 1398898315 20.2702
0122 1398899536 20.4299
0123 1398900756 20.6606
0124 1398901977 20.9105
0125 1398903198 20.8989
0126 1398904418 21.0225
0127 1398905639 21.0537
0128 1398906860 21.2903
0129 1398908081 21.7110
0130 1398909301 21.6018
0131 1398910522 21.7170
0132 1398911743 21.9327
0133 1398912963 22.5805
0134 1398914184 22.3775
0135 1398915405 22.0912
0136 1398916625 22.3565
0137 1398917846 22.4802
0138 1398919067 22.7538
0139 1398920288 22.7727
0140 1398921508 22.7634
0141 1398922729 23.0121
0142 1398923950 23.1670
0143 1398925170 23.9299
0144 1398926391 24.1660
0145 1398927612 23.7179
0146 1398928833 23.6104
0147 1398930053 23.9983
0148 1398931274 24.3144
0149 1398932495 24.4799
0150 1398933715 24.5492
0151 1398934936 24.5473
0152 1398936157 24.8303
0153 1398937377 24.8428
0154 1398938598 25.0654
0155 1398939819 25.5810
0156 1398941040 25.5839
0157 1398942260 25.4696
0158 1398943481 25.5357
0159 1398944702 25.5659
0160 1398945922 26.1095
0161 1398947143 26.4789
0162 1398948364 26.5840
0163 1398949584 26.4555
0164 1398950805 26.5882
0165 1398952026 26.4489
0166 1398953247 26.8066
0167 1398954467 27.0366
0168 1398955688 27.6127
0169 1398956909 27.6380
0170 1398958129 27.3634
0171 1398959350 27.5335
0172 1398960571 27.5830
0173 1398961791 27.9476
0174 1398963012 28.4933
0175 1398964233 28.8890
0176 1398965454 28.5873
0177 1398966674 28.6941
0178 1398967895 28.7078
0179 1398969116 28.7495
0180 1398970336 29.2858
0181 1398971557 29.4799
0182 1398972778 29.2036
0183 1398973999 29.2040
0184 1398975219 29.5986
0185 1398976440 29.7083
0186 1398977661 30.0103
0187 1398978881 30.4152
0188 1398980102 30.3353
0189 1398981323 30.3044
0190 1398982543 30.4724
0191 1398983764 30.3702
0192 1398984985 30.8763
0193 1398986206 30.9703
0194 1398987426 31.2637
0195 1398988647 31.3613
0196 1398989868 31.6764
0197 1398991088 31.8337
0198 1398992309 31.9368
0199 1398993530 32.1944
0200 1398994750 31.7927
0201 1398995971 32.0433
0202 1398997192 32.3449
0203 1398998413 32.8836
0204 1398999633 32.8522
0205 1399000854 33.3177
0206 1399002075 33.8996
0207 1399003295 33.6931
0208 1399004516 34.2358
0209 1399005737 34.3972
0210 1399006958 34.8896
0211 1399008178 35.5511
0212 1399009399 34.6830
0213 1399010620 34.9058
0214 1399011840 34.9803
0215 1399013061 34.9970
0216 1399014282 34.6635
0217 1399015502 35.1889
0218 1399016723 37.1374
0219 1399017944 35.5695
0220 1399019165 35.2401
0221 1399020385 35.1732
0222 1399021606 35.2459
0223 1399022827 35.5274
0224 1399024047 35.8245
0225 1399025268 36.1737
0226 1399026489 36.2346
0227 1399027709 36.5394
0228 1399028930 36.4329
0229 1399030151 36.4550
0230 1399031372 36.9787
0231 1399032592 36.8634
0232 1399033813 36.7324
0233 1399035034 36.8881
0234 1399036254 37.2427
0235 1399037475 37.5786
0236 1399038696 38.2503
0237 1399039916 38.0744
0238 1399041137 38.0623
0239 1399042358 38.3246
0240 1399043579 38.6976
0241 1399044799 38.5634
0242 1399046020 38.4755
0243 1399047241 39.0763
0244 1399048461 38.9244
0245 1399049682 39.0223
0246 1399050903 39.0959
0247 1399052124 39.2621
0248 1399053344 39.4632
0249 1399054565 39.5883
0250 1399055786 40.0142
0251 1399057006 39.9317
0252 1399058227 39.8033
0253 1399059448 39.8446
0254 1399060668 40.2746
0255 1399061889 41.0961
0256 1399063110 40.9709
0257 1399064331 40.6061
0258 1399065551 40.9308
0259 1399066772 40.8843
0260 1399067993 41.4964
0261 1399069213 42.1195
0262 1399070434 41.2438
0263 1399071655 41.3419
0264 1399072875 41.9207
0265 1399074096 41.7836
0266 1399075317 41.7009
0267 1399076538 42.6623
0268 1399077758 43.8590
0269 1399078979 42.6940
0270 1399080200 42.5334
0271 1399081420 42.6023
0272 1399082641 43.0793
0273 1399083862 42.9008
0274 1399085083 43.2497
0275 1399086303 43.1713
0276 1399087524 43.5268
0277 1399088745 43.9663
0278 1399089965 43.7277
0279 1399091186 43.5959
0280 1399092407 43.9910
0281 1399093627 44.0224
0282 1399094848 44.3855
0283 1399096069 44.2477
0284 1399097290 44.4910
0285 1399098510 44.5326
0286 1399099731 45.3124
0287 1399100952 44.7856
0288 1399102172 45.2708
0289 1399103393 45.0268
0290 1399104614 45.1133
0291 1399105834 44.8217
0292 1399107055 45.7432
0293 1399108276 45.7207
0294 1399109497 45.3988
0295 1399110717 45.9997
0296 1399111938 45.9249
0297 1399113159 46.1023
0298 1399114379 46.1169
0299 1399115600 46.3739
0300 1399116821 46.6127
0301 1399118041 45.8246
0302 1399119262 46.8324
0303 1399120483 46.7805
0304 1399121704 46.6735
0305 1399122924 46.5467
0306 1399124145 47.0984
0307 1399125366 47.2946
0308 1399126586 46.8085
0309 1399127807 47.3125
0310 1399129028 48.1151
0311 1399130249 48.8823
0312 1399131469 48.1459
0313 1399132690 47.7255
0314 1399133911 48.1175
0315 1399135131 48.2771
0316 1399136352 48.1217
0317 1399137573 49.3863
0318 1399138793 49.8815
0319 1399140014 48.6332
0320 1399141235 48.3645
0321 1399142456 48.8192
0322 1399143676 48.9065
0323 1399144897 49.1790
0324 1399146118 49.2629
0325 1399147338 49.5175
0326 1399148559 48.9627
0327 1399149780 49.2394
0328 1399151000 49.3823
0329 1399152221 49.6197
0330 1399153442 50.0179
0331 1399154663 50.0390
0332 1399155883 49.7959
0333 1399157104 49.4672
0334 1399158325 49.3336
0335 1399159545 50.0091
0336 1399160766 50.2008
0337 1399161987 50.1552
0338 1399163208 50.3231
0339 1399164428 50.2901
0340 1399165649 50.5191
0341 1399166870 50.5988
0342 1399168090 50.9084
0343 1399169311 50.6622
0344 1399170532 50.7192
0345 1399171752 51.5437
0346 1399172973 51.5437
0347 1399174194 51.0913
0348 1399175415 51.3598
0349 1399176635 51.2357
0350 1399177856 51.2627
0351 1399179077 51.6376
0352 1399180297 51.1938
0353 1399181518 51.5359
0354 1399182739 51.7168
0355 1399183959 51.6637
0356 1399185180 51.8479
0357 1399186401 52.0214
0358 1399187622 51.6637
0359 1399188842 51.7683
0360 1399190063 54.3377
0361 1399191284 53.4115
0362 1399192504 52.4688
0363 1399193725 51.7997
0364 1399194946 51.8355
0365 1399196166 52.1985
0366 1399197387 53.1234
0367 1399198608 54.1046
0368 1399199829 52.7014
0369 1399201049 52.9158
0370 1399202270 52.9400
0371 1399203491 53.1008
0372 1399204711 52.9344
0373 1399205932 53.8006
0374 1399207153 53.0358
0375 1399208374 53.2963
0376 1399209594 53.4494
0377 1399210815 52.8201
0378 1399212036 53.0162
0379 1399213256 52.8123
0380 1399214477 53.6811
0381 1399215698 53.6544
0382 1399216918 53.6106
0383 1399218139 52.9683
0384 1399219360 53.4807
0385 1399220581 54.3485
0386 1399221801 54.5265
0387 1399223022 53.6927
0388 1399224243 53.9189
0389 1399225463 53.4485
0390 1399226684 53.6216
0391 1399227905 53.7473
0392 1399229125 53.7903
0393 1399230346 54.0692
0394 1399231567 53.6729
0395 1399232788 53.4725
0396 1399234008 53.8951
0397 1399235229 54.0245
0398 1399236450 54.4253
0399 1399237670 54.4098
0400 1399238891 53.9638
0401 1399240112 54.2826
0402 1399241333 53.8478
0403 1399242553 54.1430
0404 1399243774 55.6708
0405 1399244995 55.3808
0406 1399246215 54.2164
0407 1399247436 54.5470
0408 1399248657 54.5929
0409 1399249877 54.2400
0410 1399251098 54.9587
0411 1399252319 54.9644
0412 1399253540 54.6535
0413 1399254760 54.6399
0414 1399255981 54.3006
0415 1399257202 54.5279
0416 1399258422 55.1431
0417 1399259643 56.1378
0418 1399260864 55.1047
0419 1399262084 55.6805
0420 1399263305 55.1317
0421 1399264526 55.0308
0422 1399265747 55.4615
0423 1399266967 56.0230
0424 1399268188 55.8114
0425 1399269409 55.6974
0426 1399270629 54.9390
0427 1399271850 54.8358
0428 1399273071 55.3798
0429 1399274291 55.6184
0430 1399275512 55.7020
0431 1399276733 55.1181
0432 1399277954 55.6291
0433 1399279174 55.1976
0434 1399280395 55.0655
0435 1399281616 55.5685
0436 1399282836 55.5518
0437 1399284057 55.1952
0438 1399285278 55.5522
0439 1399286499 55.2740
0440 1399287719 55.3800
0441 1399288940 55.6573
0442 1399290161 55.5438
0443 1399291381 55.2178
0444 1399292602 55.0524
0445 1399293823 55.6400
0446 1399295043 55.5681
0447 1399296264 56.1666
0448 1399297485 56.9452
0449 1399298706 56.6141
0450 1399299926 55.5409
0451 1399301147 55.3432
0452 1399302368 55.8669
0453 1399303588 55.3612
0454 1399304809 55.8694
0455 1399306030 56.4713
0456 1399307250 55.4033
0457 1399308471 55.0814
0458 1399309692 56.2523
0459 1399310913 56.1838
0460 1399312133 57.5591
0461 1399313354 56.3593
0462 1399314575 55.9425
0463 1399315795 55.6527
0464 1399317016 55.4722
0465 1399318237 56.2205
0466 1399319458 56.4381
0467 1399320678 58.0540
0468 1399321899 56.3060
0469 1399323120 55.7301
0470 1399324340 55.5531
0471 1399325561 55.6342
0472 1399326782 55.4778
0473 1399328002 55.7976
0474 1399329223 56.6845
0475 1399330444 56.0245
0476 1399331665 55.7648
0477 1399332885 55.9616
0478 1399334106 55.6699
0479 1399335327 55.6799
0480 1399336547 56.3786
0481 1399337768 56.1564
0482 1399338989 55.6235
0483 1399340209 55.9852
0484 1399341430 55.9564
0485 1399342651 56.3727
0486 1399343872 56.3537
0487 1399345092 55.9017
0488 1399346313 55.5382
0489 1399347534 55.4433
0490 1399348754 55.5381
0491 1399349975 56.1054
0492 1399351196 55.8547
0493 1399352416 55.5976
0494 1399353637 55.3928
0495 1399354858 56.2389
0496 1399356079 55.9024
0497 1399357299 55.7135
0498 1399358520 56.3805
0499 1399359741 55.5000
0500 1399360961 55.9153
0501 1399362182 56.3056
0502 1399363403 55.7943
0503 1399364624 55.6907
0504 1399365844 55.6869
0505 1399367065 55.8071
0506 1399368286 55.5944
0507 1399369506 55.9982
0508 1399370727 55.8158
0509 1399371948 56.7523
0510 1399373168 57.4555
0511 1399374389 56.1704
0512 1399375610 55.3686
0513 1399376831 55.9717
0514 1399378051 56.4889
0515 1399379272 56.3479
0516 1399380493 57.2209
0517 1399381713 56.4069
0518 1399382934 56.2754
0519 1399384155 55.7925
0520 1399385375 55.7490
0521 1399386596 55.7122
0522 1399387817 56.3483
0523 1399389038 56.9131
0524 1399390258 56.6310
0525 1399391479 56.8158
0526 1399392700 57.3290
0527 1399393920 57.6380
0528 1399395141 57.9623
0529 1399396362 57.2014
0530 1399397583 56.4647
0531 1399398803 55.9960
0532 1399400024 55.1762
0533 1399401245 55.3838
0534 1399402465 55.3469
0535 1399403686 55.5482
0536 1399404907 54.8914
0537 1399406127 55.0446
0538 1399407348 55.7547
0539 1399408569 54.9253
0540 1399409790 55.7924
0541 1399411010 55.6804
0542 1399412231 54.9768
0543 1399413452 55.5904
0544 1399414672 55.5416
0545 1399415893 55.0711
0546 1399417114 55.4741
0547 1399418334 55.6141
0548 1399419555 54.9411
0549 1399420776 55.3182
0550 1399421997 55.6414
0551 1399423217 55.2689
0552 1399424438 55.4607
0553 1399425659 55.5274
0554 1399426879 55.1948
0555 1399428100 54.8694
0556 1399429321 55.2319
0557 1399430541 55.0762
0558 1399431762 55.1730
0559 1399432983 56.7231
0560 1399434204 56.1503
0561 1399435424 56.0196
0562 1399436645 55.3975
0563 1399437866 55.1666
0564 1399439086 55.1572
0565 1399440307 55.9470
0566 1399441528 56.5894
0567 1399442749 55.5428
0568 1399443969 54.8776
0569 1399445190 54.8682
0570 1399446411 55.5042
0571 1399447631 55.2035
0572 1399448852 55.4412
0573 1399450073 55.4623
0574 1399451293 55.0391
0575 1399452514 54.4448
0576 1399453735 54.2356
0577 1399454956 54.5598
0578 1399456176 55.3774
0579 1399457397 54.9728
0580 1399458618 54.9851
0581 1399459838 54.6757
0582 1399461059 54.8513
0583 1399462280 54.8775
0584 1399463500 55.4745
0585 1399464721 55.1433
0586 1399465942 54.9057
0587 1399467163 59.7781
0588 1399468383 56.3541
0589 1399469604 55.0113
0590 1399470825 54.9341
0591 1399472045 55.6402
0592 1399473266 55.4836
0593 1399474487 55.0509
0594 1399475708 54.7057
0595 1399476928 54.7996
0596 1399478149 54.3980
0597 1399479370 55.0946
0598 1399480590 54.8669
0599 1399481811 55.0335
0600 1399483032 55.2008
0601 1399484252 55.2413
0602 1399485473 54.8247
0603 1399486694 55.2070
0604 1399487915 55.0121
0605 1399489135 54.8772
0606 1399490356 54.8523
0607 1399491577 54.1653
0608 1399492797 54.8429
0609 1399494018 55.8202
0610 1399495239 55.4058
0611 1399496459 54.6383
0612 1399497680 54.6138
0613 1399498901 56.1586
0614 1399500122 55.7262
0615 1399501342 56.4537
0616 1399502563 58.6759
0617 1399503784 57.9722
0618 1399505004 57.5144
0619 1399506225 55.8318
0620 1399507446 54.5907
0621 1399508666 54.8437
0622 1399509887 55.1217
0623 1399511108 55.4345
0624 1399512329 55.0658
0625 1399513549 54.5748
0626 1399514770 55.0335
0627 1399515991 54.7491
0628 1399517211 55.0491
0629 1399518432 55.0370
0630 1399519653 54.7107
0631 1399520874 54.6189
0632 1399522094 54.6794
0633 1399523315 55.3680
0634 1399524536 55.8772
0635 1399525756 55.8640
0636 1399526977 54.9302
0637 1399528198 55.0758
0638 1399529418 54.7942
0639 1399530639 55.3596
0640 1399531860 55.5613
0641 1399533081 55.4893
0642 1399534301 55.0018
0643 1399535522 55.0362
0644 1399536743 55.0491
0645 1399537963 55.6222
0646 1399539184 56.2890
0647 1399540405 56.0003
0648 1399541625 55.8316
0649 1399542846 55.5062
0650 1399544067 55.6598
0651 1399545288 55.3944
0652 1399546508 55.3302
0653 1399547729 56.3778
0654 1399548950 55.5165
0655 1399550170 54.8730
0656 1399551391 54.8492
0657 1399552612 55.5743
0658 1399553833 56.1467
0659 1399555053 57.1502
0660 1399556274 55.7169
0661 1399557495 54.9313
0662 1399558715 55.3245
0663 1399559936 55.6134
0664 1399561157 55.2466
0665 1399562377 58.6459
0666 1399563598 58.6989
0667 1399564819 55.4696
0668 1399566040 55.6475
0669 1399567260 55.2217
0670 1399568481 55.0942
0671 1399569702 55.4788
0672 1399570922 55.7825
0673 1399572143 55.2554
0674 1399573364 55.5551
0675 1399574584 55.2149
0676 1399575805 55.7766
0677 1399577026 55.7325
0678 1399578247 56.1317
0679 1399579467 55.6327
0680 1399580688 55.4882
0681 1399581909 55.4581
0682 1399583129 55.5495
0683 1399584350 55.7786
0684 1399585571 55.9508
0685 1399586791 55.8494
0686 1399588012 56.1089
0687 1399589233 55.8868
0688 1399590454 55.6732
0689 1399591674 55.7042
0690 1399592895 56.8086
0691 1399594116 56.3379
0692 1399595336 55.8379
0693 1399596557 55.4614
0694 1399597778 55.6333
0695 1399598999 56.2455
0696 1399600219 56.3057
0697 1399601440 56.4828
0698 1399602661 55.8892
0699 1399603881 55.7789
0700 1399605102 55.8239
0701 1399606323 56.4045
0702 1399607543 56.0510
0703 1399608764 55.7262
0704 1399609985 56.1713
0705 1399611206 56.4069
0706 1399612426 56.2776
0707 1399613647 56.4683
0708 1399614868 57.0081
0709 1399616088 57.1816
0710 1399617309 56.7359
0711 1399618530 56.1199
0712 1399619750 56.2357
0713 1399620971 56.6583
0714 1399622192 56.6454
0715 1399623413 59.0737
0716 1399624633 57.7391
0717 1399625854 56.2910
0718 1399627075 56.2703
0719 1399628295 56.5386
0720 1399629516 56.0666
0721 1399630737 57.3316
0722 1399631958 57.6342
0723 1399633178 56.6857
0724 1399634399 56.8380
0725 1399635620 56.9931
0726 1399636840 56.7385
0727 1399638061 57.5173
0728 1399639282 56.6375
0729 1399640502 57.3357
0730 1399641723 57.2153
0731 1399642944 57.2829
0732 1399644165 57.3731
0733 1399645385 57.0962
0734 1399646606 57.9649
0735 1399647827 57.2632
0736 1399649047 57.3867
0737 1399650268 57.5831
0738 1399651489 56.9934
0739 1399652709 57.2933
0740 1399653930 58.4551
0741 1399655151 57.8940
0742 1399656372 57.9019
0743 1399657592 57.7608
0744 1399658813 57.4639
0745 1399660034 57.7958
0746 1399661254 57.4173
0747 1399662475 57.3237
0748 1399663696 57.8939
0749 1399664916 57.9207
0750 1399666137 57.8340
0751 1399667358 57.6819
0752 1399668579 59.0160
0753 1399669799 58.7868
0754 1399671020 57.9207
0755 1399672241 57.2420
0756 1399673461 58.1565
0757 1399674682 58.1479
0758 1399675903 59.7167
0759 1399677124 58.4704
0760 1399678344 57.8885
0761 1399679565 58.2732
0762 1399680786 58.5431
0763 1399682006 58.2625
0764 1399683227 58.6326
0765 1399684448 61.6704
0766 1399685668 59.4871
0767 1399686889 58.6985
0768 1399688110 58.6857
0769 1399689331 58.5963
0770 1399690551 58.0950
0771 1399691772 59.1947
0772 1399692993 59.1492
0773 1399694213 58.2490
