# File: 20-06-08T225218.ast
# NOTEA     = None Attached.  RTLSDR Dongle Test
# NOTEB     = Spectral Integration
# OBSERVER  = Science Aficionado
# DEVICE    = rtlsdr=0
# DATADIR   = ../data/
# SITE      = None Attached.  RTLSDR Dongle Test
# CITY      = Green Bank
# REGION    = West Virginia
# COUNTRY   = US
# TELTYPE   = Bubble Wrap  Horn
# FRAME     = TOPO
# GAIN1     = 49.0
# GAIN2     = 11.0
# GAIN3     = 11.0
# GAIN4     = 0.0
# Count     = 10000
# CenterFreq= 1400000000.0
# Bandwidth = 2500000.0
# Duration  = 83.535955
# DeltaX    = 5859.375
# TSYS      = 200.0
# TRX       = 100.0
# TRMS      = 2.0
# TINT      = 1.0
# KPERC     = 100.0
# GAINFACT  = 1.0
# BUNIT     = Counts
# NCHAN     = 2048
# NSPEC     = 1
# NTIME     = 0
# NSAMPLES  = 0
# EPEAK     = 4.10875183718
# ERMS      = 0.995973393526
# EMJD      = 58568.808999981004 
# REFCHAN   = 1024.0
# REFSAMPL  = 256.0
# NAVE      = 100
# NMEDIAN   = 1024
# Fft_rate  = 5000
# UTC       = 2020-06-08 22:52:18.304311
# SECONDS   =       0.0000000000 
# LST       = 10:44:02.690
# AZ        = 180.0
# EL        = 90.0
# TELLON    = -79:50:22.920
# TELLAT    = +38:25:59.160
# RA        = 10:41:44.080
# DEC       = +38:38:34.800
# GALLON    = 181:34:51.40
# GALLAT    = +60:37:57.60
# ALT_SUN   = +19:00:20.0
# AZ_SUN    = +284:41:27.9
# ETAA      = 0.8
# ETAB      = 0.99
# POLANGLE  = 0.0
# TELSIZEAM = 1.0
# TELSIZEBM = 1.0
# AST_VERS  = 05.01
0000 1398750610 11.8645
0001 1398751831 11.8814
0002 1398753051 11.9092
0003 1398754272 12.1186
0004 1398755493 11.8807
0005 1398756713 12.1205
0006 1398757934 11.9482
0007 1398759155 11.9581
0008 1398760375 11.9836
0009 1398761596 12.0622
0010 1398762817 12.3337
0011 1398764038 11.9578
0012 1398765258 11.9419
0013 1398766479 12.0258
0014 1398767700 11.8780
0015 1398768920 11.8712
0016 1398770141 11.8934
0017 1398771362 11.9582
0018 1398772583 11.9314
0019 1398773803 12.2700
0020 1398775024 12.0775
0021 1398776245 12.1487
0022 1398777465 12.1965
0023 1398778686 12.1976
0024 1398779907 12.2747
0025 1398781127 12.3729
0026 1398782348 12.1619
0027 1398783569 12.1725
0028 1398784790 12.4675
0029 1398786010 12.8559
0030 1398787231 12.5036
0031 1398788452 12.5317
0032 1398789672 12.4677
0033 1398790893 12.4677
0034 1398792114 12.4831
0035 1398793334 12.7241
0036 1398794555 12.7604
0037 1398795776 12.7541
0038 1398796997 16.7898
0039 1398798217 18.3479
0040 1398799438 13.1384
0041 1398800659 13.5062
0042 1398801879 13.0261
0043 1398803100 12.9539
0044 1398804321 13.0608
0045 1398805541 13.0498
0046 1398806762 13.0540
0047 1398807983 13.1802
0048 1398809204 13.2271
0049 1398810424 13.1855
0050 1398811645 13.5158
0051 1398812866 13.4652
0052 1398814086 13.5221
0053 1398815307 13.6129
0054 1398816528 13.6498
0055 1398817749 13.7081
0056 1398818969 13.7503
0057 1398820190 13.9140
0058 1398821411 13.8943
0059 1398822631 13.9508
0060 1398823852 13.9675
0061 1398825073 13.9620
0062 1398826293 14.1865
0063 1398827514 14.2520
0064 1398828735 14.2607
0065 1398829956 14.4326
0066 1398831176 14.5198
0067 1398832397 14.5824
0068 1398833618 14.7284
0069 1398834838 15.3450
0070 1398836059 14.8940
0071 1398837280 14.8491
0072 1398838500 14.9292
0073 1398839721 15.0981
0074 1398840942 15.1262
0075 1398842163 15.1914
0076 1398843383 15.2827
0077 1398844604 15.4245
0078 1398845825 15.5659
0079 1398847045 15.6391
0080 1398848266 15.6715
0081 1398849487 16.0132
0082 1398850708 15.9084
0083 1398851928 15.9210
0084 1398853149 15.9149
0085 1398854370 15.9709
0086 1398855590 16.2737
0087 1398856811 16.3393
0088 1398858032 16.6373
0089 1398859252 16.4684
0090 1398860473 16.6092
0091 1398861694 16.6957
0092 1398862915 16.7362
0093 1398864135 16.9906
0094 1398865356 17.0445
0095 1398866577 17.1774
0096 1398867797 17.3472
0097 1398869018 17.3994
0098 1398870239 17.7847
0099 1398871459 17.7250
0100 1398872680 17.7425
0101 1398873901 17.7861
0102 1398875122 17.8830
0103 1398876342 18.0312
0104 1398877563 18.2254
0105 1398878784 18.3117
0106 1398880004 18.4782
0107 1398881225 18.5967
0108 1398882446 18.6433
0109 1398883666 18.6968
0110 1398884887 19.0629
0111 1398886108 19.2180
0112 1398887329 19.6931
0113 1398888549 19.4309
0114 1398889770 19.3439
0115 1398890991 19.5965
0116 1398892211 19.7369
0117 1398893432 19.7854
0118 1398894653 20.8091
0119 1398895874 21.2046
0120 1398897094 20.4382
0121 1398898315 20.5316
0122 1398899536 20.5952
0123 1398900756 20.6400
0124 1398901977 20.5712
0125 1398903198 20.7245
0126 1398904418 21.0311
0127 1398905639 21.0759
0128 1398906860 21.2561
0129 1398908081 21.4699
0130 1398909301 21.7104
0131 1398910522 21.6543
0132 1398911743 21.6676
0133 1398912963 22.7664
0134 1398914184 22.3561
0135 1398915405 22.0977
0136 1398916625 22.4021
0137 1398917846 22.4795
0138 1398919067 22.7984
0139 1398920288 22.7586
0140 1398921508 22.9298
0141 1398922729 23.0134
0142 1398923950 23.4040
0143 1398925170 23.9594
0144 1398926391 24.1968
0145 1398927612 23.7368
0146 1398928833 23.8879
0147 1398930053 23.9420
0148 1398931274 24.1721
0149 1398932495 24.4921
0150 1398933715 24.5958
0151 1398934936 24.5053
0152 1398936157 24.8179
0153 1398937377 24.9984
0154 1398938598 25.1748
0155 1398939819 25.2212
0156 1398941040 25.8929
0157 1398942260 25.5409
0158 1398943481 25.4697
0159 1398944702 25.8602
0160 1398945922 25.8544
0161 1398947143 26.3265
0162 1398948364 26.3265
0163 1398949584 26.2276
0164 1398950805 26.5698
0165 1398952026 26.5357
0166 1398953247 26.6736
0167 1398954467 27.1208
0168 1398955688 27.7082
0169 1398956909 27.6509
0170 1398958129 27.3961
0171 1398959350 27.5404
0172 1398960571 27.7906
0173 1398961791 27.9654
0174 1398963012 28.3054
0175 1398964233 29.0358
0176 1398965454 28.6191
0177 1398966674 28.5221
0178 1398967895 28.7340
0179 1398969116 29.0152
0180 1398970336 29.5455
0181 1398971557 29.7909
0182 1398972778 29.4199
0183 1398973999 29.5641
0184 1398975219 29.8499
0185 1398976440 29.7217
0186 1398977661 30.2636
0187 1398978881 30.5035
0188 1398980102 30.2641
0189 1398981323 30.2202
0190 1398982543 30.4994
0191 1398983764 30.6055
0192 1398984985 30.8748
0193 1398986206 31.1143
0194 1398987426 31.2803
0195 1398988647 31.4644
0196 1398989868 31.6812
0197 1398991088 31.5291
0198 1398992309 31.7618
0199 1398993530 32.1291
0200 1398994750 32.3664
0201 1398995971 32.3179
0202 1398997192 32.2218
0203 1398998413 32.7687
0204 1398999633 32.9652
0205 1399000854 33.2895
0206 1399002075 33.4918
0207 1399003295 33.3841
0208 1399004516 33.8781
0209 1399005737 34.5115
0210 1399006958 34.8133
0211 1399008178 35.6565
0212 1399009399 35.0433
0213 1399010620 34.5458
0214 1399011840 34.6084
0215 1399013061 34.9099
0216 1399014282 34.8798
0217 1399015502 35.1252
0218 1399016723 37.3809
0219 1399017944 35.7685
0220 1399019165 35.3586
0221 1399020385 35.0770
0222 1399021606 35.6266
0223 1399022827 35.7732
0224 1399024047 35.9139
0225 1399025268 36.3825
0226 1399026489 36.5055
0227 1399027709 36.1886
0228 1399028930 36.4729
0229 1399030151 36.4221
0230 1399031372 36.9367
0231 1399032592 36.9939
0232 1399033813 37.3276
0233 1399035034 37.0718
0234 1399036254 37.3182
0235 1399037475 37.5892
0236 1399038696 38.0952
0237 1399039916 38.2976
0238 1399041137 37.8782
0239 1399042358 38.3962
0240 1399043579 38.3478
0241 1399044799 39.2157
0242 1399046020 38.6538
0243 1399047241 38.6958
0244 1399048461 39.3061
0245 1399049682 39.1834
0246 1399050903 39.5630
0247 1399052124 39.1203
0248 1399053344 39.6788
0249 1399054565 39.4318
0250 1399055786 40.3761
0251 1399057006 40.0124
0252 1399058227 40.1749
0253 1399059448 39.9501
0254 1399060668 40.6598
0255 1399061889 41.3812
0256 1399063110 41.0251
0257 1399064331 40.9226
0258 1399065551 40.9377
0259 1399066772 40.6479
0260 1399067993 41.5850
0261 1399069213 42.4009
0262 1399070434 41.7675
0263 1399071655 41.9237
0264 1399072875 41.6380
0265 1399074096 42.2109
0266 1399075317 42.1883
0267 1399076538 42.7833
0268 1399077758 43.7168
0269 1399078979 42.4060
0270 1399080200 42.2375
0271 1399081420 42.7582
0272 1399082641 42.7222
0273 1399083862 43.2084
0274 1399085083 43.6946
0275 1399086303 43.4906
0276 1399087524 43.5920
0277 1399088745 43.7447
0278 1399089965 43.8879
0279 1399091186 44.0276
0280 1399092407 44.7867
0281 1399093627 44.6995
0282 1399094848 44.6756
0283 1399096069 44.4283
0284 1399097290 44.7435
0285 1399098510 44.6198
0286 1399099731 45.1291
0287 1399100952 45.0478
0288 1399102172 45.1684
0289 1399103393 45.1738
0290 1399104614 45.4577
0291 1399105834 44.8331
0292 1399107055 45.4918
0293 1399108276 45.9828
0294 1399109497 45.6718
0295 1399110717 46.1761
0296 1399111938 46.1639
0297 1399113159 46.2278
0298 1399114379 46.2364
0299 1399115600 46.7422
0300 1399116821 46.8144
0301 1399118041 46.1842
0302 1399119262 46.6109
0303 1399120483 46.6857
0304 1399121704 47.0576
0305 1399122924 47.5160
0306 1399124145 47.5690
0307 1399125366 47.4493
0308 1399126586 47.3270
0309 1399127807 47.5288
0310 1399129028 48.4850
0311 1399130249 48.4051
0312 1399131469 47.6299
0313 1399132690 47.6552
0314 1399133911 48.0349
0315 1399135131 48.9719
0316 1399136352 48.5475
0317 1399137573 49.5673
0318 1399138793 49.9005
0319 1399140014 49.0353
0320 1399141235 48.7252
0321 1399142456 48.6374
0322 1399143676 48.9651
0323 1399144897 49.0956
0324 1399146118 49.5362
0325 1399147338 49.2768
0326 1399148559 49.5206
0327 1399149780 49.4902
0328 1399151000 49.5208
0329 1399152221 49.9732
0330 1399153442 50.1088
0331 1399154663 50.0631
0332 1399155883 50.1746
0333 1399157104 50.0088
0334 1399158325 49.6377
0335 1399159545 50.2448
0336 1399160766 51.0510
0337 1399161987 50.1113
0338 1399163208 50.5112
0339 1399164428 50.4539
0340 1399165649 50.6882
0341 1399166870 51.0931
0342 1399168090 51.1279
0343 1399169311 51.4554
0344 1399170532 50.9081
0345 1399171752 51.0050
0346 1399172973 51.5352
0347 1399174194 51.6574
0348 1399175415 51.7322
0349 1399176635 51.4075
0350 1399177856 51.4272
0351 1399179077 51.2407
0352 1399180297 51.5462
0353 1399181518 51.4664
0354 1399182739 51.7817
0355 1399183959 51.8169
0356 1399185180 52.0772
0357 1399186401 51.9677
0358 1399187622 51.8898
0359 1399188842 51.9564
0360 1399190063 54.6927
0361 1399191284 53.3128
0362 1399192504 52.7518
0363 1399193725 52.3120
0364 1399194946 52.6992
0365 1399196166 52.5026
0366 1399197387 52.9227
0367 1399198608 54.6585
0368 1399199829 53.5750
0369 1399201049 52.4515
0370 1399202270 52.6187
0371 1399203491 52.9388
0372 1399204711 53.5826
0373 1399205932 53.8974
0374 1399207153 53.7638
0375 1399208374 52.7830
0376 1399209594 53.1084
0377 1399210815 53.6252
0378 1399212036 53.7941
0379 1399213256 53.8500
0380 1399214477 53.7428
0381 1399215698 53.6630
0382 1399216918 53.3679
0383 1399218139 53.9147
0384 1399219360 53.5785
0385 1399220581 54.6269
0386 1399221801 54.4793
0387 1399223022 53.8429
0388 1399224243 54.0786
0389 1399225463 54.0948
0390 1399226684 54.2551
0391 1399227905 54.2699
0392 1399229125 54.2067
0393 1399230346 54.2058
0394 1399231567 54.1121
0395 1399232788 53.9452
0396 1399234008 54.2152
0397 1399235229 53.4690
0398 1399236450 54.7568
0399 1399237670 54.4866
0400 1399238891 54.2310
0401 1399240112 54.4441
0402 1399241333 54.2985
0403 1399242553 54.7200
0404 1399243774 56.0120
0405 1399244995 56.1044
0406 1399246215 54.5500
0407 1399247436 54.8739
0408 1399248657 54.7968
0409 1399249877 55.0961
0410 1399251098 54.8587
0411 1399252319 54.5659
0412 1399253540 54.9174
0413 1399254760 54.8045
0414 1399255981 54.9608
0415 1399257202 55.0014
0416 1399258422 55.1960
0417 1399259643 56.4718
0418 1399260864 55.0759
0419 1399262084 54.7050
0420 1399263305 54.8378
0421 1399264526 54.7203
0422 1399265747 55.0987
0423 1399266967 55.9065
0424 1399268188 55.5182
0425 1399269409 55.3587
0426 1399270629 55.1792
0427 1399271850 54.9047
0428 1399273071 55.4560
0429 1399274291 55.5607
0430 1399275512 56.0986
0431 1399276733 55.1387
0432 1399277954 55.0240
0433 1399279174 55.1233
0434 1399280395 55.4363
0435 1399281616 55.5106
0436 1399282836 55.2923
0437 1399284057 55.1488
0438 1399285278 55.1934
0439 1399286499 55.3214
0440 1399287719 55.3365
0441 1399288940 54.9604
0442 1399290161 56.0164
0443 1399291381 55.4542
0444 1399292602 55.9945
0445 1399293823 55.5244
0446 1399295043 55.3223
0447 1399296264 55.5178
0448 1399297485 56.3018
0449 1399298706 56.0572
0450 1399299926 55.6694
0451 1399301147 55.0474
0452 1399302368 55.8370
0453 1399303588 55.6160
0454 1399304809 55.8587
0455 1399306030 56.4461
0456 1399307250 55.9963
0457 1399308471 55.5144
0458 1399309692 55.7710
0459 1399310913 56.4739
0460 1399312133 57.2467
0461 1399313354 56.9390
0462 1399314575 55.3198
0463 1399315795 55.5028
0464 1399317016 55.4614
0465 1399318237 56.1163
0466 1399319458 56.6458
0467 1399320678 58.0907
0468 1399321899 56.1322
0469 1399323120 55.6137
0470 1399324340 56.3936
0471 1399325561 55.6850
0472 1399326782 55.7159
0473 1399328002 56.2052
0474 1399329223 56.4266
0475 1399330444 55.9671
0476 1399331665 55.4975
0477 1399332885 55.8228
0478 1399334106 56.3736
0479 1399335327 56.3012
0480 1399336547 56.3733
0481 1399337768 56.2189
0482 1399338989 55.9640
0483 1399340209 55.7931
0484 1399341430 56.2265
0485 1399342651 56.3061
0486 1399343872 55.6649
0487 1399345092 55.5321
0488 1399346313 55.6095
0489 1399347534 55.8684
0490 1399348754 55.5688
0491 1399349975 56.4258
0492 1399351196 56.3583
0493 1399352416 55.3211
0494 1399353637 56.2392
0495 1399354858 55.7190
0496 1399356079 55.8941
0497 1399357299 56.4610
0498 1399358520 56.2009
0499 1399359741 55.8629
0500 1399360961 56.1961
0501 1399362182 56.5062
0502 1399363403 55.9745
0503 1399364624 56.3517
0504 1399365844 56.1472
0505 1399367065 55.4250
0506 1399368286 56.1764
0507 1399369506 55.6665
0508 1399370727 55.9919
0509 1399371948 57.0301
0510 1399373168 57.0919
0511 1399374389 55.6405
0512 1399375610 55.9977
0513 1399376831 56.0262
0514 1399378051 55.3863
0515 1399379272 56.3912
0516 1399380493 56.7181
0517 1399381713 56.0388
0518 1399382934 55.3892
0519 1399384155 55.5450
0520 1399385375 55.6068
0521 1399386596 55.5070
0522 1399387817 56.0132
0523 1399389038 56.5027
0524 1399390258 56.5892
0525 1399391479 56.5628
0526 1399392700 56.3918
0527 1399393920 57.7077
0528 1399395141 57.9992
0529 1399396362 58.1564
0530 1399397583 57.2646
0531 1399398803 55.9829
0532 1399400024 55.5984
0533 1399401245 55.6003
0534 1399402465 55.6206
0535 1399403686 55.7287
0536 1399404907 55.4669
0537 1399406127 55.0045
0538 1399407348 54.8407
0539 1399408569 55.3461
0540 1399409790 55.9240
0541 1399411010 55.8969
0542 1399412231 55.6586
0543 1399413452 55.1369
0544 1399414672 55.3210
0545 1399415893 55.5015
0546 1399417114 55.8591
0547 1399418334 55.5052
0548 1399419555 55.1950
0549 1399420776 55.4718
0550 1399421997 55.5929
0551 1399423217 55.3133
0552 1399424438 55.4687
0553 1399425659 55.6629
0554 1399426879 56.1329
0555 1399428100 55.7864
0556 1399429321 55.7506
0557 1399430541 55.5278
0558 1399431762 55.5465
0559 1399432983 55.8047
0560 1399434204 55.7550
0561 1399435424 55.4017
0562 1399436645 54.9458
0563 1399437866 55.0076
0564 1399439086 55.4288
0565 1399440307 55.7697
0566 1399441528 57.2043
0567 1399442749 55.7665
0568 1399443969 55.6644
0569 1399445190 55.1164
0570 1399446411 55.2752
0571 1399447631 55.2439
0572 1399448852 55.6003
0573 1399450073 55.7394
0574 1399451293 55.0732
0575 1399452514 54.8813
0576 1399453735 55.3600
0577 1399454956 54.9043
0578 1399456176 55.1812
0579 1399457397 55.1902
0580 1399458618 55.0878
0581 1399459838 54.6421
0582 1399461059 54.6094
0583 1399462280 55.1808
0584 1399463500 55.6365
0585 1399464721 54.8803
0586 1399465942 55.4206
0587 1399467163 59.7117
0588 1399468383 56.1413
0589 1399469604 54.9416
0590 1399470825 54.9462
0591 1399472045 55.3102
0592 1399473266 54.7014
0593 1399474487 54.8121
0594 1399475708 54.7456
0595 1399476928 55.3857
0596 1399478149 55.2992
0597 1399479370 54.9577
0598 1399480590 55.0447
0599 1399481811 55.8257
0600 1399483032 54.7086
0601 1399484252 55.3119
0602 1399485473 55.3444
0603 1399486694 54.7487
0604 1399487915 54.7769
0605 1399489135 54.5806
0606 1399490356 55.0830
0607 1399491577 54.5754
0608 1399492797 55.1857
0609 1399494018 55.3141
0610 1399495239 55.6532
0611 1399496459 54.9949
0612 1399497680 55.5066
0613 1399498901 56.7495
0614 1399500122 55.7373
0615 1399501342 56.8376
0616 1399502563 59.7165
0617 1399503784 59.2161
0618 1399505004 56.7827
0619 1399506225 55.2095
0620 1399507446 54.8557
0621 1399508666 55.1916
0622 1399509887 55.1604
0623 1399511108 55.6997
0624 1399512329 55.1863
0625 1399513549 54.7928
0626 1399514770 55.5011
0627 1399515991 54.7087
0628 1399517211 55.2570
0629 1399518432 54.6845
0630 1399519653 55.2063
0631 1399520874 54.6345
0632 1399522094 54.8999
0633 1399523315 55.2114
0634 1399524536 56.2845
0635 1399525756 55.7767
0636 1399526977 55.2371
0637 1399528198 55.2118
0638 1399529418 55.3283
0639 1399530639 54.8799
0640 1399531860 55.2892
0641 1399533081 55.7850
0642 1399534301 55.1567
0643 1399535522 55.7257
0644 1399536743 55.7317
0645 1399537963 55.9766
0646 1399539184 56.5452
0647 1399540405 55.7355
0648 1399541625 55.3801
0649 1399542846 55.4135
0650 1399544067 55.3866
0651 1399545288 55.4382
0652 1399546508 55.7865
0653 1399547729 56.1928
0654 1399548950 55.5996
0655 1399550170 55.3056
0656 1399551391 55.4264
0657 1399552612 55.3456
0658 1399553833 55.7964
0659 1399555053 56.9098
0660 1399556274 55.8327
0661 1399557495 55.5601
0662 1399558715 55.5545
0663 1399559936 56.0179
0664 1399561157 55.8769
0665 1399562377 58.3080
0666 1399563598 58.8421
0667 1399564819 55.6535
0668 1399566040 55.0027
0669 1399567260 55.2186
0670 1399568481 55.2270
0671 1399569702 56.1598
0672 1399570922 56.3801
0673 1399572143 55.3656
0674 1399573364 55.8003
0675 1399574584 55.6604
0676 1399575805 55.0439
0677 1399577026 55.3820
0678 1399578247 56.4700
0679 1399579467 55.4117
0680 1399580688 54.7797
0681 1399581909 55.3623
0682 1399583129 55.5959
0683 1399584350 56.0422
0684 1399585571 56.2165
0685 1399586791 55.8738
0686 1399588012 56.1292
0687 1399589233 55.1956
0688 1399590454 55.9722
0689 1399591674 56.0659
0690 1399592895 56.9402
0691 1399594116 56.8439
0692 1399595336 55.4509
0693 1399596557 55.6599
0694 1399597778 55.5552
0695 1399598999 55.8094
0696 1399600219 56.1423
0697 1399601440 55.8459
0698 1399602661 55.1687
0699 1399603881 55.9903
0700 1399605102 56.6897
0701 1399606323 56.2973
0702 1399607543 56.1530
0703 1399608764 56.0542
0704 1399609985 56.1176
0705 1399611206 55.3399
0706 1399612426 56.2413
0707 1399613647 55.8809
0708 1399614868 56.9885
0709 1399616088 57.6299
0710 1399617309 56.6272
0711 1399618530 56.5947
0712 1399619750 56.4899
0713 1399620971 56.6217
0714 1399622192 56.7879
0715 1399623413 58.7361
0716 1399624633 58.1864
0717 1399625854 56.4911
0718 1399627075 56.8934
0719 1399628295 56.3119
0720 1399629516 56.4334
0721 1399630737 57.1748
0722 1399631958 57.1867
0723 1399633178 56.6383
0724 1399634399 56.8066
0725 1399635620 57.3198
0726 1399636840 57.6201
0727 1399638061 57.8768
0728 1399639282 56.5068
0729 1399640502 56.7051
0730 1399641723 56.8211
0731 1399642944 56.9622
0732 1399644165 57.0484
0733 1399645385 57.0991
0734 1399646606 57.9300
0735 1399647827 57.8053
0736 1399649047 57.5375
0737 1399650268 57.3195
0738 1399651489 56.8748
0739 1399652709 56.6894
0740 1399653930 57.8012
0741 1399655151 57.8531
0742 1399656372 56.8989
0743 1399657592 57.2670
0744 1399658813 57.7595
0745 1399660034 58.4350
0746 1399661254 57.7753
0747 1399662475 58.2107
0748 1399663696 57.8185
0749 1399664916 57.9892
0750 1399666137 57.7235
0751 1399667358 58.4976
0752 1399668579 58.8073
0753 1399669799 59.3803
0754 1399671020 58.1078
0755 1399672241 57.9124
0756 1399673461 58.4252
0757 1399674682 58.3545
0758 1399675903 59.0134
0759 1399677124 58.8661
0760 1399678344 58.4023
0761 1399679565 58.4409
0762 1399680786 59.1138
0763 1399682006 58.7265
0764 1399683227 58.9191
0765 1399684448 61.2528
0766 1399685668 58.7959
0767 1399686889 58.5975
0768 1399688110 58.6620
0769 1399689331 58.6268
0770 1399690551 58.8726
0771 1399691772 59.7374
0772 1399692993 59.5111
0773 1399694213 58.8563
